* Sea-Bird SBE 19plus Data File:
* FileName = C:\Sea-Bird Data\2014\DY1405\Casts\BON037.hex
* Software Version Seasave V 7.22.3
* Temperature SN = 4530
* Conductivity SN = 4530
* System UpLoad Time = May 11 2014 20:03:53
* Real-Time Sample Interval = 0.2500 seconds
* System UTC = May 11 2014 20:03:53
# nquan = 7                                 
# nvalues = 135                         
# units = specified
# name 0 = timeS: Time, Elapsed [seconds]
# name 1 = prdM: Pressure, Strain Gauge [db]
# name 2 = tv290C: Temperature [ITS-90, deg C]
# name 3 = c0mS/cm: Conductivity [mS/cm]
# name 4 = sal00: Salinity, Practical [PSU]
# name 5 = sigma-t00: Density [sigma-t, Kg/m^3 ]
# name 6 = flag: flag
# span 0 =     59.906,    486.010       
# span 1 =      1.000,     68.000       
# span 2 =    -0.8486,     0.3527       
# span 3 =  19.339465,  26.787136       
# span 4 =    22.1612,    32.0750       
# span 5 =    17.7492,    25.7491       
# span 6 = 0.0000e+00, 0.0000e+00       
# interval = decibars: 1                
# start_time = May 11 2014 20:03:53 [System UTC, header]
# bad_flag = -9.990e-29
# <Sensors count="3" >
#   <sensor Channel="1" >
#     <!-- Count, Temperature -->
#     <TemperatureSensor SensorID="58" >
#       <SerialNumber>4530</SerialNumber>
#       <CalibrationDate>03-Dec-13</CalibrationDate>
#       <A0>1.22471000e-003</A0>
#       <A1>2.66234600e-004</A1>
#       <A2>-3.25282000e-007</A2>
#       <A3>1.63905300e-007</A3>
#       <Slope>1.00000000</Slope>
#       <Offset>0.0000</Offset>
#     </TemperatureSensor>
#   </sensor>
#   <sensor Channel="2" >
#     <!-- Frequency 0, Conductivity -->
#     <ConductivitySensor SensorID="3" >
#       <SerialNumber>4530</SerialNumber>
#       <CalibrationDate>03-Dec-13</CalibrationDate>
#       <UseG_J>1</UseG_J>
#       <!-- Cell const and series R are applicable only for wide range sensors. -->
#       <SeriesR>0.0000</SeriesR>
#       <CellConst>2000.0000</CellConst>
#       <ConductivityType>0</ConductivityType>
#       <Coefficients equation="0" >
#         <A>0.00000000e+000</A>
#         <B>0.00000000e+000</B>
#         <C>0.00000000e+000</C>
#         <D>0.00000000e+000</D>
#         <M>0.0</M>
#         <CPcor>-9.57000000e-008</CPcor>
#       </Coefficients>
#       <Coefficients equation="1" >
#         <G>-9.84131900e-001</G>
#         <H>1.41458700e-001</H>
#         <I>-1.92288200e-004</I>
#         <J>3.59848200e-005</J>
#         <CPcor>-9.57000000e-008</CPcor>
#         <CTcor>3.2500e-006</CTcor>
#         <!-- WBOTC not applicable unless ConductivityType = 1. -->
#         <WBOTC>0.00000000e+000</WBOTC>
#       </Coefficients>
#       <Slope>1.00000000</Slope>
#       <Offset>0.00000</Offset>
#     </ConductivitySensor>
#   </sensor>
#   <sensor Channel="3" >
#     <!-- Count, Pressure, Strain Gauge -->
#     <PressureSensor SensorID="46" >
#       <SerialNumber>4530</SerialNumber>
#       <CalibrationDate>02-Dec-13</CalibrationDate>
#       <PA0>-3.35712300e-001</PA0>
#       <PA1>1.56795400e-002</PA1>
#       <PA2>-6.60390500e-010</PA2>
#       <PTEMPA0>-6.74611800e+001</PTEMPA0>
#       <PTEMPA1>5.06446900e+001</PTEMPA1>
#       <PTEMPA2>-4.65162800e-001</PTEMPA2>
#       <PTCA0>5.24503600e+005</PTCA0>
#       <PTCA1>-3.17070100e-002</PTCA1>
#       <PTCA2>-4.70494400e-002</PTCA2>
#       <PTCB0>2.49031200e+001</PTCB0>
#       <PTCB1>-5.75000000e-004</PTCB1>
#       <PTCB2>0.00000000e+000</PTCB2>
#       <Offset>0.000000</Offset>
#     </PressureSensor>
#   </sensor>
# </Sensors>
# datcnv_date = May 13 2014 00:25:29, 7.22.2 [datcnv_vars = 4]
# datcnv_in = c:\data\seacat\current\bon037.hex c:\data\seacat\current\bon037.XMLCON
# datcnv_skipover = 0
# filter_date = May 13 2014 00:25:30, 7.22.2
# filter_in = c:\data\seacat\current\bon037.cnv
# filter_low_pass_tc_A = 0.500
# filter_low_pass_tc_B = 2.000
# filter_low_pass_A_vars = prdM tv290C c0mS/cm
# filter_low_pass_B_vars =
# alignctd_date = May 13 2014 00:25:30, 7.22.2
# alignctd_in = c:\data\seacat\current\bon037.cnv
# alignctd_adv = tv290C 0.500                                                                                                                                                                                                        
# wildedit_date = May 13 2014 00:25:30, 7.22.2
# wildedit_in = c:\data\seacat\current\bon037.cnv
# wildedit_pass1_nstd = 2.0
# wildedit_pass2_nstd = 15.0
# wildedit_pass2_mindelta = 1.000e-002
# wildedit_npoint = 100
# wildedit_vars = prdM tv290C c0mS/cm
# wildedit_excl_bad_scans = yes
# binavg_date = May 13 2014 00:25:30, 7.22.2
# binavg_in = c:\data\seacat\current\bon037.cnv
# binavg_bintype = decibars
# binavg_binsize = 1
# binavg_excl_bad_scans = yes
# binavg_skipover = 0
# binavg_surface_bin = no, min = 0.000, max = 0.500, value = 0.000
# Derive_date = May 13 2014 00:25:30, 7.22.2 [derive_vars = 2]
# Derive_in = c:\data\seacat\current\bon037.cnv c:\data\seacat\current\BON037.XMLcon
# file_type = ascii
*END*
     59.906      1.000     0.3527  19.339465    22.1612    17.7492 0.0000e+00
     61.508      2.000    -0.1287  26.181724    31.3591    25.1731 0.0000e+00
     62.985      3.000    -0.1265  26.400850    31.6451    25.4038 0.0000e+00
     68.897      4.000     0.0263  26.586769    31.7305    25.4662 0.0000e+00
     74.339      5.000    -0.0401  26.590235    31.8035    25.5281 0.0000e+00
     76.174      6.000    -0.1129  26.621885    31.9207    25.6257 0.0000e+00
     77.879      7.000    -0.0492  26.691290    31.9449    25.6426 0.0000e+00
     79.925      8.000    -0.0365  26.705132    31.9493    25.6455 0.0000e+00
     82.160      9.000    -0.0635  26.732417    32.0129    25.6981 0.0000e+00
     84.097     10.000    -0.0850  26.738220    32.0426    25.7229 0.0000e+00
     85.899     11.000    -0.0862  26.762276    32.0750    25.7491 0.0000e+00
     87.947     12.000    -0.0624  26.775432    32.0667    25.7414 0.0000e+00
     90.072     13.000    -0.0890  26.728469    32.0322    25.7147 0.0000e+00
     91.886     14.000    -0.0998  26.747758    32.0684    25.7444 0.0000e+00
     93.821     15.000    -0.0144  26.787136    32.0300    25.7097 0.0000e+00
     96.437     16.000    -0.0570  26.725012    31.9923    25.6811 0.0000e+00
     98.697     17.000    -0.1485  26.630146    31.9625    25.6610 0.0000e+00
    100.683     18.000    -0.3805  26.088745    31.4872    25.2863 0.0000e+00
    103.239     19.000    -0.4425  25.974697    31.3994    25.2177 0.0000e+00
    105.498     20.000    -0.4449  25.972797    31.3988    25.2173 0.0000e+00
    107.907     21.000    -0.4503  25.967475    31.3967    25.2158 0.0000e+00
    110.090     22.000    -0.4546  25.963700    31.3956    25.2151 0.0000e+00
    112.201     23.000    -0.4593  25.959961    31.3949    25.2147 0.0000e+00
    114.594     24.000    -0.4644  25.956028    31.3944    25.2144 0.0000e+00
    116.530     25.000    -0.4773  25.946222    31.3941    25.2147 0.0000e+00
    118.518     26.000    -0.5012  25.927898    31.3939    25.2154 0.0000e+00
    120.620     27.000    -0.5340  25.902787    31.3939    25.2165 0.0000e+00
    122.680     28.000    -0.5785  25.868571    31.3939    25.2181 0.0000e+00
    124.679     29.000    -0.6335  25.826063    31.3937    25.2197 0.0000e+00
    126.788     30.000    -0.6858  25.785846    31.3937    25.2215 0.0000e+00
    128.759     31.000    -0.7207  25.758778    31.3931    25.2222 0.0000e+00
    130.721     32.000    -0.7376  25.746093    31.3931    25.2227 0.0000e+00
    133.194     33.000    -0.7541  25.733352    31.3927    25.2229 0.0000e+00
    135.434     34.000    -0.7823  25.711604    31.3923    25.2234 0.0000e+00
    137.481     35.000    -0.7980  25.699658    31.3920    25.2237 0.0000e+00
    139.875     36.000    -0.8061  25.693662    31.3918    25.2238 0.0000e+00
    142.630     37.000    -0.8144  25.687419    31.3915    25.2238 0.0000e+00
    144.386     38.000    -0.8188  25.684301    31.3913    25.2238 0.0000e+00
    146.617     39.000    -0.8235  25.681099    31.3913    25.2240 0.0000e+00
    149.088     40.000    -0.8291  25.677069    31.3912    25.2240 0.0000e+00
    150.897     41.000    -0.8328  25.674595    31.3911    25.2241 0.0000e+00
    152.742     42.000    -0.8341  25.674043    31.3911    25.2241 0.0000e+00
    154.908     43.000    -0.8355  25.673396    31.3912    25.2242 0.0000e+00
    157.073     44.000    -0.8375  25.672217    31.3911    25.2242 0.0000e+00
    159.082     45.000    -0.8410  25.669795    31.3909    25.2241 0.0000e+00
    161.015     46.000    -0.8448  25.667076    31.3906    25.2240 0.0000e+00
    162.952     47.000    -0.8437  25.668405    31.3907    25.2241 0.0000e+00
    165.096     48.000    -0.8439  25.668541    31.3905    25.2239 0.0000e+00
    167.081     49.000    -0.8449  25.668128    31.3904    25.2239 0.0000e+00
    169.012     50.000    -0.8448  25.668656    31.3904    25.2239 0.0000e+00
    171.150     51.000    -0.8458  25.668273    31.3904    25.2239 0.0000e+00
    173.058     52.000    -0.8459  25.668603    31.3903    25.2238 0.0000e+00
    174.988     53.000    -0.8456  25.669189    31.3902    25.2237 0.0000e+00
    177.062     54.000    -0.8455  25.669886    31.3905    25.2239 0.0000e+00
    179.084     55.000    -0.8452  25.670436    31.3903    25.2238 0.0000e+00
    180.891     56.000    -0.8444  25.671419    31.3902    25.2237 0.0000e+00
    182.780     57.000    -0.8441  25.672230    31.3904    25.2239 0.0000e+00
    185.182     58.000    -0.8456  25.671374    31.3903    25.2238 0.0000e+00
    187.119     59.000    -0.8464  25.671143    31.3902    25.2238 0.0000e+00
    188.780     60.000    -0.8473  25.670866    31.3902    25.2238 0.0000e+00
    190.974     61.000    -0.8471  25.671433    31.3902    25.2237 0.0000e+00
    193.372     62.000    -0.8469  25.672094    31.3903    25.2238 0.0000e+00
    195.139     63.000    -0.8470  25.672359    31.3901    25.2237 0.0000e+00
    197.154     64.000    -0.8473  25.672650    31.3903    25.2238 0.0000e+00
    199.572     65.000    -0.8473  25.673004    31.3902    25.2237 0.0000e+00
    201.736     66.000    -0.8478  25.672986    31.3901    25.2237 0.0000e+00
    203.846     67.000    -0.8480  25.673324    31.3902    25.2238 0.0000e+00
    208.074     68.000    -0.8477  25.673959    31.3901    25.2237 0.0000e+00
    214.553     67.000    -0.8477  25.673440    31.3900    25.2236 0.0000e+00
    217.321     66.000    -0.8479  25.672927    31.3901    25.2237 0.0000e+00
    219.860     65.000    -0.8479  25.672393    31.3900    25.2236 0.0000e+00
    222.869     64.000    -0.8482  25.671857    31.3901    25.2238 0.0000e+00
    226.002     63.000    -0.8483  25.671336    31.3901    25.2237 0.0000e+00
    228.939     62.000    -0.8485  25.670809    31.3902    25.2238 0.0000e+00
    232.382     61.000    -0.8486  25.670354    31.3903    25.2239 0.0000e+00
    235.312     60.000    -0.8486  25.669896    31.3902    25.2238 0.0000e+00
    238.932     59.000    -0.8486  25.669428    31.3902    25.2238 0.0000e+00
    242.240     58.000    -0.8480  25.669459    31.3902    25.2238 0.0000e+00
    245.778     57.000    -0.8471  25.669894    31.3904    25.2239 0.0000e+00
    249.745     56.000    -0.8459  25.670441    31.3905    25.2240 0.0000e+00
    252.913     55.000    -0.8456  25.670300    31.3906    25.2240 0.0000e+00
    257.367     54.000    -0.8466  25.669184    31.3907    25.2241 0.0000e+00
    260.394     53.000    -0.8470  25.668392    31.3906    25.2241 0.0000e+00
    264.614     52.000    -0.8477  25.667458    31.3907    25.2242 0.0000e+00
    267.690     51.000    -0.8483  25.666583    31.3907    25.2242 0.0000e+00
    271.474     50.000    -0.8485  25.665924    31.3906    25.2241 0.0000e+00
    275.173     49.000    -0.8484  25.665665    31.3907    25.2242 0.0000e+00
    278.662     48.000    -0.8481  25.665408    31.3907    25.2242 0.0000e+00
    282.802     47.000    -0.8481  25.664979    31.3907    25.2242 0.0000e+00
    286.496     46.000    -0.8452  25.666867    31.3908    25.2242 0.0000e+00
    290.702     45.000    -0.8370  25.672649    31.3906    25.2238 0.0000e+00
    294.594     44.000    -0.8377  25.671815    31.3907    25.2239 0.0000e+00
    298.583     43.000    -0.8387  25.670695    31.3909    25.2241 0.0000e+00
    303.176     42.000    -0.8381  25.670835    31.3910    25.2241 0.0000e+00
    307.232     41.000    -0.8352  25.672571    31.3909    25.2240 0.0000e+00
    312.213     40.000    -0.8304  25.675584    31.3905    25.2235 0.0000e+00
    316.108     39.000    -0.8306  25.675276    31.3909    25.2238 0.0000e+00
    320.626     38.000    -0.8301  25.675221    31.3909    25.2238 0.0000e+00
    325.410     37.000    -0.8279  25.676608    31.3910    25.2239 0.0000e+00
    329.828     36.000    -0.8273  25.676644    31.3910    25.2238 0.0000e+00
    334.007     35.000    -0.8220  25.680243    31.3909    25.2236 0.0000e+00
    339.406     34.000    -0.8174  25.683226    31.3907    25.2233 0.0000e+00
    343.629     33.000    -0.8076  25.690462    31.3908    25.2231 0.0000e+00
    348.051     32.000    -0.7832  25.709080    31.3910    25.2224 0.0000e+00
    352.882     31.000    -0.7508  25.733652    31.3908    25.2212 0.0000e+00
    356.913     30.000    -0.6941  25.777228    31.3908    25.2194 0.0000e+00
    362.214     29.000    -0.5867  25.860185    31.3906    25.2157 0.0000e+00
    366.549     28.000    -0.5084  25.920753    31.3907    25.2131 0.0000e+00
    371.377     27.000    -0.4655  25.954129    31.3913    25.2120 0.0000e+00
    376.088     26.000    -0.4539  25.963018    31.3917    25.2119 0.0000e+00
    381.178     25.000    -0.4499  25.966026    31.3921    25.2121 0.0000e+00
    385.910     24.000    -0.4413  25.972505    31.3924    25.2120 0.0000e+00
    390.748     23.000    -0.4355  25.976765    31.3926    25.2120 0.0000e+00
    395.726     22.000    -0.4327  25.978598    31.3927    25.2119 0.0000e+00
    400.302     21.000    -0.4297  25.980613    31.3929    25.2120 0.0000e+00
    405.503     20.000    -0.4278  25.981792    31.3930    25.2120 0.0000e+00
    409.556     19.000    -0.4252  25.983387    31.3930    25.2119 0.0000e+00
    414.210     18.000    -0.4242  25.983841    31.3932    25.2120 0.0000e+00
    419.180     17.000    -0.4251  25.982702    31.3932    25.2120 0.0000e+00
    423.265     16.000    -0.4252  25.982186    31.3932    25.2120 0.0000e+00
    427.796     15.000    -0.4222  25.984069    31.3931    25.2119 0.0000e+00
    432.363     14.000    -0.4195  25.985708    31.3931    25.2118 0.0000e+00
    436.395     13.000    -0.4195  25.985285    31.3931    25.2118 0.0000e+00
    441.176     12.000    -0.4192  25.985111    31.3931    25.2118 0.0000e+00
    444.962     11.000    -0.4182  25.985492    31.3932    25.2118 0.0000e+00
    449.757     10.000    -0.4162  25.986641    31.3932    25.2117 0.0000e+00
    453.344      9.000    -0.4152  25.986960    31.3932    25.2117 0.0000e+00
    457.764      8.000    -0.4112  25.989525    31.3930    25.2114 0.0000e+00
    461.818      7.000    -0.4028  25.995342    31.3926    25.2108 0.0000e+00
    465.738      6.000    -0.3851  26.008545    31.3924    25.2100 0.0000e+00
    469.720      5.000    -0.3629  26.025264    31.3922    25.2090 0.0000e+00
    473.528      4.000    -0.3241  26.054961    31.3920    25.2074 0.0000e+00
    477.896      3.000    -0.2639  26.101197    31.3916    25.2047 0.0000e+00
    481.400      2.000    -0.2065  26.145304    31.3912    25.2022 0.0000e+00
    486.010      1.000    -0.1832  26.162528    31.3905    25.2007 0.0000e+00
