* Sea-Bird SBE 19plus Data File:
* FileName = C:\Sea-Bird Data\2014\DY1405\Casts\BON035.hex
* Software Version Seasave V 7.22.3
* Temperature SN = 4530
* Conductivity SN = 4530
* System UpLoad Time = May 11 2014 14:52:05
* Real-Time Sample Interval = 0.2500 seconds
* System UTC = May 11 2014 14:52:05
# nquan = 7                                 
# nvalues = 121                         
# units = specified
# name 0 = timeS: Time, Elapsed [seconds]
# name 1 = prdM: Pressure, Strain Gauge [db]
# name 2 = tv290C: Temperature [ITS-90, deg C]
# name 3 = c0mS/cm: Conductivity [mS/cm]
# name 4 = sal00: Salinity, Practical [PSU]
# name 5 = sigma-t00: Density [sigma-t, Kg/m^3 ]
# name 6 = flag: flag
# span 0 =    379.419,    766.863       
# span 1 =      1.000,     61.000       
# span 2 =    -0.5707,     0.5810       
# span 3 =  23.693905,  26.833071       
# span 4 =    27.4618,    31.8404       
# span 5 =    22.0055,    25.5561       
# span 6 = 0.0000e+00, 0.0000e+00       
# interval = decibars: 1                
# start_time = May 11 2014 14:52:05 [System UTC, header]
# bad_flag = -9.990e-29
# <Sensors count="3" >
#   <sensor Channel="1" >
#     <!-- Count, Temperature -->
#     <TemperatureSensor SensorID="58" >
#       <SerialNumber>4530</SerialNumber>
#       <CalibrationDate>03-Dec-13</CalibrationDate>
#       <A0>1.22471000e-003</A0>
#       <A1>2.66234600e-004</A1>
#       <A2>-3.25282000e-007</A2>
#       <A3>1.63905300e-007</A3>
#       <Slope>1.00000000</Slope>
#       <Offset>0.0000</Offset>
#     </TemperatureSensor>
#   </sensor>
#   <sensor Channel="2" >
#     <!-- Frequency 0, Conductivity -->
#     <ConductivitySensor SensorID="3" >
#       <SerialNumber>4530</SerialNumber>
#       <CalibrationDate>03-Dec-13</CalibrationDate>
#       <UseG_J>1</UseG_J>
#       <!-- Cell const and series R are applicable only for wide range sensors. -->
#       <SeriesR>0.0000</SeriesR>
#       <CellConst>2000.0000</CellConst>
#       <ConductivityType>0</ConductivityType>
#       <Coefficients equation="0" >
#         <A>0.00000000e+000</A>
#         <B>0.00000000e+000</B>
#         <C>0.00000000e+000</C>
#         <D>0.00000000e+000</D>
#         <M>0.0</M>
#         <CPcor>-9.57000000e-008</CPcor>
#       </Coefficients>
#       <Coefficients equation="1" >
#         <G>-9.84131900e-001</G>
#         <H>1.41458700e-001</H>
#         <I>-1.92288200e-004</I>
#         <J>3.59848200e-005</J>
#         <CPcor>-9.57000000e-008</CPcor>
#         <CTcor>3.2500e-006</CTcor>
#         <!-- WBOTC not applicable unless ConductivityType = 1. -->
#         <WBOTC>0.00000000e+000</WBOTC>
#       </Coefficients>
#       <Slope>1.00000000</Slope>
#       <Offset>0.00000</Offset>
#     </ConductivitySensor>
#   </sensor>
#   <sensor Channel="3" >
#     <!-- Count, Pressure, Strain Gauge -->
#     <PressureSensor SensorID="46" >
#       <SerialNumber>4530</SerialNumber>
#       <CalibrationDate>02-Dec-13</CalibrationDate>
#       <PA0>-3.35712300e-001</PA0>
#       <PA1>1.56795400e-002</PA1>
#       <PA2>-6.60390500e-010</PA2>
#       <PTEMPA0>-6.74611800e+001</PTEMPA0>
#       <PTEMPA1>5.06446900e+001</PTEMPA1>
#       <PTEMPA2>-4.65162800e-001</PTEMPA2>
#       <PTCA0>5.24503600e+005</PTCA0>
#       <PTCA1>-3.17070100e-002</PTCA1>
#       <PTCA2>-4.70494400e-002</PTCA2>
#       <PTCB0>2.49031200e+001</PTCB0>
#       <PTCB1>-5.75000000e-004</PTCB1>
#       <PTCB2>0.00000000e+000</PTCB2>
#       <Offset>0.000000</Offset>
#     </PressureSensor>
#   </sensor>
# </Sensors>
# datcnv_date = May 13 2014 00:21:39, 7.22.2 [datcnv_vars = 4]
# datcnv_in = c:\data\seacat\current\bon035.hex c:\data\seacat\current\bon035.XMLCON
# datcnv_skipover = 0
# filter_date = May 13 2014 00:21:39, 7.22.2
# filter_in = c:\data\seacat\current\bon035.cnv
# filter_low_pass_tc_A = 0.500
# filter_low_pass_tc_B = 2.000
# filter_low_pass_A_vars = prdM tv290C c0mS/cm
# filter_low_pass_B_vars =
# alignctd_date = May 13 2014 00:21:39, 7.22.2
# alignctd_in = c:\data\seacat\current\bon035.cnv
# alignctd_adv = tv290C 0.500                                                                                                                                                                                                        
# wildedit_date = May 13 2014 00:21:39, 7.22.2
# wildedit_in = c:\data\seacat\current\bon035.cnv
# wildedit_pass1_nstd = 2.0
# wildedit_pass2_nstd = 15.0
# wildedit_pass2_mindelta = 1.000e-002
# wildedit_npoint = 100
# wildedit_vars = prdM tv290C c0mS/cm
# wildedit_excl_bad_scans = yes
# binavg_date = May 13 2014 00:21:39, 7.22.2
# binavg_in = c:\data\seacat\current\bon035.cnv
# binavg_bintype = decibars
# binavg_binsize = 1
# binavg_excl_bad_scans = yes
# binavg_skipover = 0
# binavg_surface_bin = no, min = 0.000, max = 0.500, value = 0.000
# Derive_date = May 13 2014 00:21:40, 7.22.2 [derive_vars = 2]
# Derive_in = c:\data\seacat\current\bon035.cnv c:\data\seacat\current\BON035.XMLcon
# file_type = ascii
*END*
    379.419      1.000     0.5810  23.693905    27.4618    22.0055 0.0000e+00
    381.588      2.000     0.3351  26.768326    31.6497    25.3869 0.0000e+00
    384.881      3.000     0.4184  26.610792    31.3592    25.1489 0.0000e+00
    390.500      4.000     0.3852  26.777505    31.6090    25.3517 0.0000e+00
    392.088      5.000     0.3881  26.768260    31.5934    25.3390 0.0000e+00
    393.909      6.000     0.4190  26.833071    31.6452    25.3793 0.0000e+00
    395.729      7.000     0.4372  26.827881    31.6192    25.3574 0.0000e+00
    397.367      8.000     0.3952  26.725852    31.5294    25.2871 0.0000e+00
    399.262      9.000     0.3752  26.765948    31.6014    25.3461 0.0000e+00
    401.011     10.000     0.3694  26.741805    31.5754    25.3254 0.0000e+00
    402.647     11.000     0.3636  26.661489    31.4764    25.2460 0.0000e+00
    404.543     12.000     0.3528  26.655406    31.4790    25.2486 0.0000e+00
    406.361     13.000     0.3308  26.625975    31.4627    25.2365 0.0000e+00
    408.130     14.000     0.3144  26.632784    31.4878    25.2575 0.0000e+00
    410.400     15.000     0.3644  26.743669    31.5802    25.3295 0.0000e+00
    412.588     16.000     0.3672  26.727361    31.5555    25.3095 0.0000e+00
    414.465     17.000     0.3303  26.660062    31.5053    25.2708 0.0000e+00
    416.730     18.000     0.3899  26.726366    31.5298    25.2877 0.0000e+00
    419.138     19.000     0.0895  26.411332    31.4267    25.2184 0.0000e+00
    420.839     20.000    -0.1348  26.236906    31.4279    25.2288 0.0000e+00
    422.717     21.000    -0.2816  26.132140    31.4405    25.2449 0.0000e+00
    424.833     22.000    -0.4122  26.037301    31.4494    25.2570 0.0000e+00
    426.720     23.000    -0.3925  26.060919    31.4598    25.2647 0.0000e+00
    428.432     24.000    -0.3885  26.069254    31.4661    25.2697 0.0000e+00
    430.207     25.000    -0.4322  26.039035    31.4708    25.2750 0.0000e+00
    432.089     26.000    -0.4518  26.028683    31.4768    25.2806 0.0000e+00
    433.984     27.000    -0.4584  26.030685    31.4857    25.2880 0.0000e+00
    435.818     28.000    -0.4856  26.019334    31.4983    25.2992 0.0000e+00
    437.595     29.000    -0.4900  26.023890    31.5084    25.3075 0.0000e+00
    439.277     30.000    -0.4807  26.043076    31.5236    25.3195 0.0000e+00
    441.273     31.000    -0.4807  26.059383    31.5448    25.3366 0.0000e+00
    443.788     32.000    -0.5021  26.052354    31.5571    25.3473 0.0000e+00
    445.422     33.000    -0.4811  26.075880    31.5660    25.3538 0.0000e+00
    447.128     34.000    -0.4942  26.074543    31.5773    25.3634 0.0000e+00
    449.963     35.000    -0.5424  26.044942    31.5875    25.3734 0.0000e+00
    452.081     36.000    -0.5607  26.033167    31.5903    25.3763 0.0000e+00
    453.759     37.000    -0.5640  26.035019    31.5957    25.3807 0.0000e+00
    456.094     38.000    -0.5707  26.034778    31.6018    25.3859 0.0000e+00
    458.853     39.000    -0.5700  26.039499    31.6068    25.3899 0.0000e+00
    460.755     40.000    -0.5678  26.044760    31.6109    25.3932 0.0000e+00
    462.523     41.000    -0.5628  26.051924    31.6147    25.3960 0.0000e+00
    465.534     42.000    -0.5502  26.063633    31.6165    25.3971 0.0000e+00
    467.768     43.000    -0.4924  26.113336    31.6219    25.3993 0.0000e+00
    469.673     44.000    -0.3785  26.209943    31.6310    25.4025 0.0000e+00
    471.964     45.000    -0.2532  26.318287    31.6435    25.4078 0.0000e+00
    474.115     46.000    -0.2062  26.361229    31.6509    25.4118 0.0000e+00
    476.380     47.000    -0.1707  26.396938    31.6606    25.4182 0.0000e+00
    478.296     48.000    -0.1593  26.410365    31.6659    25.4220 0.0000e+00
    479.953     49.000    -0.1742  26.402990    31.6710    25.4268 0.0000e+00
    482.315     50.000    -0.1661  26.416339    31.6797    25.4334 0.0000e+00
    484.755     51.000    -0.0814  26.495989    31.6961    25.4431 0.0000e+00
    486.474     52.000     0.0398  26.609328    31.7187    25.4561 0.0000e+00
    488.362     53.000     0.1083  26.670383    31.7272    25.4599 0.0000e+00
    490.558     54.000     0.1487  26.715910    31.7443    25.4719 0.0000e+00
    493.122     55.000     0.0904  26.693288    31.7746    25.4989 0.0000e+00
    494.937     56.000     0.0470  26.683352    31.8060    25.5263 0.0000e+00
    496.853     57.000     0.0184  26.677392    31.8274    25.5448 0.0000e+00
    499.392     58.000     0.0063  26.674882    31.8361    25.5523 0.0000e+00
    501.475     59.000     0.0021  26.674012    31.8388    25.5547 0.0000e+00
    503.366     60.000     0.0007  26.674161    31.8399    25.5556 0.0000e+00
    510.124     61.000     0.0004  26.674796    31.8404    25.5561 0.0000e+00
    517.046     60.000     0.0021  26.674790    31.8392    25.5550 0.0000e+00
    520.296     59.000     0.0043  26.675017    31.8378    25.5538 0.0000e+00
    522.972     58.000     0.0073  26.675577    31.8360    25.5522 0.0000e+00
    524.920     57.000     0.0149  26.676898    31.8304    25.5473 0.0000e+00
    528.015     56.000     0.0354  26.680751    31.8147    25.5338 0.0000e+00
    530.725     55.000     0.0701  26.687426    31.7880    25.5107 0.0000e+00
    532.481     54.000     0.1181  26.703273    31.7595    25.4855 0.0000e+00
    535.778     53.000     0.1264  26.690651    31.7349    25.4654 0.0000e+00
    538.156     52.000     0.0942  26.662438    31.7319    25.4644 0.0000e+00
    540.234     51.000    -0.0112  26.564011    31.7127    25.4535 0.0000e+00
    543.432     50.000    -0.1466  26.440023    31.6906    25.4415 0.0000e+00
    545.691     49.000    -0.1366  26.442087    31.6835    25.4353 0.0000e+00
    548.114     48.000    -0.1333  26.437260    31.6743    25.4277 0.0000e+00
    551.353     47.000    -0.1790  26.393344    31.6644    25.4216 0.0000e+00
    553.755     46.000    -0.2204  26.355610    31.6582    25.4183 0.0000e+00
    557.488     45.000    -0.3182  26.274181    31.6528    25.4178 0.0000e+00
    559.891     44.000    -0.4882  26.130222    31.6394    25.4133 0.0000e+00
    563.433     43.000    -0.5428  26.081342    31.6318    25.4092 0.0000e+00
    566.440     42.000    -0.5363  26.082612    31.6273    25.4053 0.0000e+00
    569.348     41.000    -0.5482  26.067390    31.6200    25.3999 0.0000e+00
    573.088     40.000    -0.5630  26.050557    31.6136    25.3952 0.0000e+00
    575.562     39.000    -0.5692  26.042385    31.6098    25.3923 0.0000e+00
    578.878     38.000    -0.5705  26.037675    31.6054    25.3888 0.0000e+00
    581.876     37.000    -0.5562  26.044211    31.5998    25.3838 0.0000e+00
    584.860     36.000    -0.5082  26.079073    31.5968    25.3796 0.0000e+00
    588.066     35.000    -0.4810  26.098065    31.5943    25.3766 0.0000e+00
    591.432     34.000    -0.4488  26.117464    31.5871    25.3696 0.0000e+00
    595.169     33.000    -0.4453  26.113266    31.5784    25.3625 0.0000e+00
    599.464     32.000    -0.4658  26.089980    31.5694    25.3560 0.0000e+00
    603.379     31.000    -0.4861  26.066956    31.5605    25.3495 0.0000e+00
    609.325     30.000    -0.5039  26.047079    31.5531    25.3442 0.0000e+00
    613.981     29.000    -0.4818  26.046226    31.5296    25.3243 0.0000e+00
    618.805     28.000    -0.5002  26.020617    31.5152    25.3134 0.0000e+00
    624.875     27.000    -0.4962  26.009901    31.4973    25.2988 0.0000e+00
    629.162     26.000    -0.4531  26.030917    31.4811    25.2841 0.0000e+00
    633.934     25.000    -0.4954  25.986561    31.4666    25.2739 0.0000e+00
    638.901     24.000    -0.4463  26.019138    31.4595    25.2664 0.0000e+00
    644.188     23.000    -0.3798  26.065782    31.4531    25.2588 0.0000e+00
    649.440     22.000    -0.4281  26.019545    31.4423    25.2519 0.0000e+00
    654.961     21.000    -0.2231  26.168776    31.4285    25.2329 0.0000e+00
    661.082     20.000    -0.1126  26.247242    31.4186    25.2205 0.0000e+00
    667.524     19.000     0.1450  26.436247    31.4024    25.1964 0.0000e+00
    673.090     18.000     0.2070  26.487460    31.4063    25.1967 0.0000e+00
    678.948     17.000     0.2054  26.486931    31.4078    25.1980 0.0000e+00
    684.251     16.000     0.2086  26.489475    31.4084    25.1984 0.0000e+00
    689.404     15.000     0.2181  26.496783    31.4088    25.1982 0.0000e+00
    694.238     14.000     0.2275  26.503524    31.4085    25.1976 0.0000e+00
    698.967     13.000     0.2373  26.510575    31.4082    25.1969 0.0000e+00
    704.472     12.000     0.2485  26.518734    31.4079    25.1962 0.0000e+00
    709.372     11.000     0.2578  26.525406    31.4077    25.1955 0.0000e+00
    714.375     10.000     0.2627  26.528467    31.4072    25.1949 0.0000e+00
    719.932      9.000     0.2661  26.530419    31.4068    25.1945 0.0000e+00
    724.159      8.000     0.2710  26.533585    31.4065    25.1940 0.0000e+00
    728.975      7.000     0.2724  26.534298    31.4066    25.1940 0.0000e+00
    733.507      6.000     0.2763  26.536711    31.4063    25.1936 0.0000e+00
    737.389      5.000     0.2754  26.535594    31.4063    25.1936 0.0000e+00
    741.603      4.000     0.2760  26.535621    31.4063    25.1936 0.0000e+00
    745.635      3.000     0.2770  26.536020    31.4064    25.1936 0.0000e+00
    758.615      2.000     0.2785  26.536674    31.4063    25.1934 0.0000e+00
    766.863      1.000     0.2788  26.528026    31.3952    25.1845 0.0000e+00
