* Sea-Bird SBE 19plus Data File:
* FileName = C:\Sea-Bird Data\2014\DY1405\Casts\BON040.hex
* Software Version Seasave V 7.22.3
* Temperature SN = 4530
* Conductivity SN = 4530
* System UpLoad Time = May 12 2014 02:36:20
* Real-Time Sample Interval = 0.2500 seconds
* System UTC = May 12 2014 02:36:20
# nquan = 7                                 
# nvalues = 137                         
# units = specified
# name 0 = timeS: Time, Elapsed [seconds]
# name 1 = prdM: Pressure, Strain Gauge [db]
# name 2 = tv290C: Temperature [ITS-90, deg C]
# name 3 = c0mS/cm: Conductivity [mS/cm]
# name 4 = sal00: Salinity, Practical [PSU]
# name 5 = sigma-t00: Density [sigma-t, Kg/m^3 ]
# name 6 = flag: flag
# span 0 =     54.329,    486.606       
# span 1 =      1.000,     69.000       
# span 2 =    -0.9453,     1.7376       
# span 3 =  14.113311,  27.265442       
# span 4 =    15.0531,    32.4300       
# span 5 =    12.0266,    26.0225       
# span 6 = 0.0000e+00, 0.0000e+00       
# interval = decibars: 1                
# start_time = May 12 2014 02:36:20 [System UTC, header]
# bad_flag = -9.990e-29
# <Sensors count="3" >
#   <sensor Channel="1" >
#     <!-- Count, Temperature -->
#     <TemperatureSensor SensorID="58" >
#       <SerialNumber>4530</SerialNumber>
#       <CalibrationDate>03-Dec-13</CalibrationDate>
#       <A0>1.22471000e-003</A0>
#       <A1>2.66234600e-004</A1>
#       <A2>-3.25282000e-007</A2>
#       <A3>1.63905300e-007</A3>
#       <Slope>1.00000000</Slope>
#       <Offset>0.0000</Offset>
#     </TemperatureSensor>
#   </sensor>
#   <sensor Channel="2" >
#     <!-- Frequency 0, Conductivity -->
#     <ConductivitySensor SensorID="3" >
#       <SerialNumber>4530</SerialNumber>
#       <CalibrationDate>03-Dec-13</CalibrationDate>
#       <UseG_J>1</UseG_J>
#       <!-- Cell const and series R are applicable only for wide range sensors. -->
#       <SeriesR>0.0000</SeriesR>
#       <CellConst>2000.0000</CellConst>
#       <ConductivityType>0</ConductivityType>
#       <Coefficients equation="0" >
#         <A>0.00000000e+000</A>
#         <B>0.00000000e+000</B>
#         <C>0.00000000e+000</C>
#         <D>0.00000000e+000</D>
#         <M>0.0</M>
#         <CPcor>-9.57000000e-008</CPcor>
#       </Coefficients>
#       <Coefficients equation="1" >
#         <G>-9.84131900e-001</G>
#         <H>1.41458700e-001</H>
#         <I>-1.92288200e-004</I>
#         <J>3.59848200e-005</J>
#         <CPcor>-9.57000000e-008</CPcor>
#         <CTcor>3.2500e-006</CTcor>
#         <!-- WBOTC not applicable unless ConductivityType = 1. -->
#         <WBOTC>0.00000000e+000</WBOTC>
#       </Coefficients>
#       <Slope>1.00000000</Slope>
#       <Offset>0.00000</Offset>
#     </ConductivitySensor>
#   </sensor>
#   <sensor Channel="3" >
#     <!-- Count, Pressure, Strain Gauge -->
#     <PressureSensor SensorID="46" >
#       <SerialNumber>4530</SerialNumber>
#       <CalibrationDate>02-Dec-13</CalibrationDate>
#       <PA0>-3.35712300e-001</PA0>
#       <PA1>1.56795400e-002</PA1>
#       <PA2>-6.60390500e-010</PA2>
#       <PTEMPA0>-6.74611800e+001</PTEMPA0>
#       <PTEMPA1>5.06446900e+001</PTEMPA1>
#       <PTEMPA2>-4.65162800e-001</PTEMPA2>
#       <PTCA0>5.24503600e+005</PTCA0>
#       <PTCA1>-3.17070100e-002</PTCA1>
#       <PTCA2>-4.70494400e-002</PTCA2>
#       <PTCB0>2.49031200e+001</PTCB0>
#       <PTCB1>-5.75000000e-004</PTCB1>
#       <PTCB2>0.00000000e+000</PTCB2>
#       <Offset>0.000000</Offset>
#     </PressureSensor>
#   </sensor>
# </Sensors>
# datcnv_date = May 13 2014 00:50:15, 7.22.2 [datcnv_vars = 4]
# datcnv_in = c:\data\seacat\current\bon040.hex c:\data\seacat\current\bon040.XMLCON
# datcnv_skipover = 0
# filter_date = May 13 2014 00:50:16, 7.22.2
# filter_in = c:\data\seacat\current\bon040.cnv
# filter_low_pass_tc_A = 0.500
# filter_low_pass_tc_B = 2.000
# filter_low_pass_A_vars = prdM tv290C c0mS/cm
# filter_low_pass_B_vars =
# alignctd_date = May 13 2014 00:50:16, 7.22.2
# alignctd_in = c:\data\seacat\current\bon040.cnv
# alignctd_adv = tv290C 0.500                                                                                                                                                                                                        
# wildedit_date = May 13 2014 00:50:16, 7.22.2
# wildedit_in = c:\data\seacat\current\bon040.cnv
# wildedit_pass1_nstd = 2.0
# wildedit_pass2_nstd = 15.0
# wildedit_pass2_mindelta = 1.000e-002
# wildedit_npoint = 100
# wildedit_vars = prdM tv290C c0mS/cm
# wildedit_excl_bad_scans = yes
# binavg_date = May 13 2014 00:50:16, 7.22.2
# binavg_in = c:\data\seacat\current\bon040.cnv
# binavg_bintype = decibars
# binavg_binsize = 1
# binavg_excl_bad_scans = yes
# binavg_skipover = 0
# binavg_surface_bin = no, min = 0.000, max = 0.500, value = 0.000
# Derive_date = May 13 2014 00:50:16, 7.22.2 [derive_vars = 2]
# Derive_in = c:\data\seacat\current\bon040.cnv c:\data\seacat\current\BON040.XMLcon
# file_type = ascii
*END*
     54.329      1.000     1.7376  14.113311    15.0531    12.0266 0.0000e+00
     55.498      2.000     0.3584  25.182545    29.5723    23.7127 0.0000e+00
     57.384      3.000     0.2369  26.706630    31.6700    25.4079 0.0000e+00
     62.106      4.000     0.2146  26.774587    31.7812    25.4986 0.0000e+00
     68.138      5.000     0.1824  26.953527    32.0481    25.7153 0.0000e+00
     70.085      6.000     0.4771  27.033685    31.8456    25.5378 0.0000e+00
     72.126      7.000     0.3513  27.062045    32.0124    25.6784 0.0000e+00
     73.885      8.000     0.3187  27.131161    32.1360    25.7795 0.0000e+00
     75.814      9.000     0.4340  27.147271    32.0361    25.6933 0.0000e+00
     78.006     10.000     0.2288  27.119187    32.2134    25.8463 0.0000e+00
     79.818     11.000     0.1619  27.184259    32.3685    25.9746 0.0000e+00
     81.653     12.000     0.2029  27.219348    32.3706    25.9743 0.0000e+00
     83.869     13.000     0.2176  27.220001    32.3554    25.9613 0.0000e+00
     86.172     14.000     0.1873  27.244827    32.4193    26.0144 0.0000e+00
     88.246     15.000     0.1967  27.261019    32.4300    26.0225 0.0000e+00
     90.253     16.000     0.2209  27.265442    32.4097    26.0049 0.0000e+00
     93.061     17.000     0.0873  27.098270    32.3310    25.9479 0.0000e+00
     94.815     18.000    -0.1744  26.468284    31.7753    25.5109 0.0000e+00
     96.910     19.000    -0.3086  26.131958    31.4694    25.2692 0.0000e+00
     99.725     20.000    -0.3314  26.079804    31.4233    25.2329 0.0000e+00
    101.462     21.000    -0.3327  26.077702    31.4213    25.2313 0.0000e+00
    103.524     22.000    -0.3327  26.077052    31.4199    25.2302 0.0000e+00
    105.965     23.000    -0.3310  26.078201    31.4191    25.2295 0.0000e+00
    107.954     24.000    -0.3302  26.078910    31.4186    25.2291 0.0000e+00
    109.803     25.000    -0.3297  26.079488    31.4183    25.2288 0.0000e+00
    111.755     26.000    -0.3294  26.080303    31.4185    25.2289 0.0000e+00
    113.461     27.000    -0.3304  26.079805    31.4183    25.2288 0.0000e+00
    115.476     28.000    -0.3321  26.078765    31.4181    25.2287 0.0000e+00
    117.422     29.000    -0.3341  26.077517    31.4179    25.2287 0.0000e+00
    119.071     30.000    -0.3360  26.076573    31.4181    25.2288 0.0000e+00
    121.174     31.000    -0.3366  26.076629    31.4182    25.2290 0.0000e+00
    123.415     32.000    -0.3445  26.071925    31.4195    25.2304 0.0000e+00
    125.164     33.000    -0.4168  26.016222    31.4199    25.2333 0.0000e+00
    127.047     34.000    -0.5278  25.931490    31.4217    25.2388 0.0000e+00
    129.157     35.000    -0.6642  25.826965    31.4233    25.2447 0.0000e+00
    131.648     36.000    -0.7471  25.765192    31.4263    25.2499 0.0000e+00
    133.266     37.000    -0.7977  25.726262    31.4262    25.2514 0.0000e+00
    135.218     38.000    -0.8329  25.699562    31.4265    25.2527 0.0000e+00
    138.399     39.000    -0.8686  25.671912    31.4260    25.2534 0.0000e+00
    139.967     40.000    -0.8867  25.658034    31.4257    25.2537 0.0000e+00
    141.595     41.000    -0.9055  25.643800    31.4255    25.2541 0.0000e+00
    144.916     42.000    -0.9166  25.635531    31.4254    25.2544 0.0000e+00
    146.677     43.000    -0.9218  25.631877    31.4253    25.2545 0.0000e+00
    148.302     44.000    -0.9278  25.627640    31.4253    25.2546 0.0000e+00
    150.460     45.000    -0.9297  25.626534    31.4252    25.2546 0.0000e+00
    152.640     46.000    -0.9285  25.627805    31.4251    25.2545 0.0000e+00
    154.526     47.000    -0.9310  25.626119    31.4249    25.2544 0.0000e+00
    156.162     48.000    -0.9345  25.623586    31.4245    25.2542 0.0000e+00
    157.987     49.000    -0.9355  25.623337    31.4247    25.2543 0.0000e+00
    160.807     50.000    -0.9364  25.622902    31.4244    25.2542 0.0000e+00
    162.413     51.000    -0.9388  25.621584    31.4246    25.2543 0.0000e+00
    163.855     52.000    -0.9410  25.620555    31.4249    25.2547 0.0000e+00
    166.373     53.000    -0.9428  25.619682    31.4250    25.2548 0.0000e+00
    168.871     54.000    -0.9424  25.620512    31.4252    25.2549 0.0000e+00
    170.416     55.000    -0.9442  25.619609    31.4252    25.2550 0.0000e+00
    172.274     56.000    -0.9451  25.619728    31.4258    25.2555 0.0000e+00
    175.069     57.000    -0.9440  25.621587    31.4265    25.2561 0.0000e+00
    176.916     58.000    -0.9449  25.622031    31.4275    25.2569 0.0000e+00
    178.740     59.000    -0.9432  25.624900    31.4290    25.2580 0.0000e+00
    180.956     60.000    -0.9373  25.631693    31.4314    25.2598 0.0000e+00
    183.493     61.000    -0.9319  25.641060    31.4378    25.2648 0.0000e+00
    185.395     62.000    -0.9319  25.644265    31.4415    25.2679 0.0000e+00
    186.943     63.000    -0.9231  25.657685    31.4498    25.2743 0.0000e+00
    189.364     64.000    -0.8899  25.695778    31.4658    25.2863 0.0000e+00
    192.106     65.000    -0.8562  25.732983    31.4801    25.2968 0.0000e+00
    193.569     66.000    -0.8444  25.748880    31.4885    25.3033 0.0000e+00
    195.301     67.000    -0.8363  25.761350    31.4962    25.3093 0.0000e+00
    197.973     68.000    -0.8302  25.772120    31.5038    25.3152 0.0000e+00
    205.056     69.000    -0.8258  25.780591    31.5100    25.3201 0.0000e+00
    212.748     68.000    -0.8278  25.775853    31.5063    25.3171 0.0000e+00
    214.861     67.000    -0.8320  25.767698    31.5003    25.3124 0.0000e+00
    218.159     66.000    -0.8382  25.757336    31.4934    25.3070 0.0000e+00
    221.487     65.000    -0.8464  25.745595    31.4868    25.3019 0.0000e+00
    223.525     64.000    -0.8694  25.718962    31.4756    25.2936 0.0000e+00
    228.204     63.000    -0.9194  25.664195    31.4547    25.2782 0.0000e+00
    229.979     62.000    -0.9216  25.657975    31.4492    25.2738 0.0000e+00
    234.000     61.000    -0.9276  25.647630    31.4421    25.2682 0.0000e+00
    237.075     60.000    -0.9316  25.639331    31.4357    25.2632 0.0000e+00
    240.713     59.000    -0.9407  25.628233    31.4309    25.2595 0.0000e+00
    244.524     58.000    -0.9440  25.623902    31.4291    25.2581 0.0000e+00
    247.824     57.000    -0.9453  25.620979    31.4271    25.2565 0.0000e+00
    251.502     56.000    -0.9448  25.620166    31.4260    25.2557 0.0000e+00
    254.918     55.000    -0.9447  25.619080    31.4250    25.2549 0.0000e+00
    258.565     54.000    -0.9444  25.618681    31.4248    25.2547 0.0000e+00
    261.882     53.000    -0.9423  25.619570    31.4244    25.2543 0.0000e+00
    265.084     52.000    -0.9417  25.619665    31.4244    25.2543 0.0000e+00
    269.300     51.000    -0.9419  25.618828    31.4241    25.2541 0.0000e+00
    272.135     50.000    -0.9418  25.618395    31.4240    25.2540 0.0000e+00
    276.666     49.000    -0.9410  25.618577    31.4240    25.2539 0.0000e+00
    279.692     48.000    -0.9400  25.618820    31.4239    25.2538 0.0000e+00
    284.043     47.000    -0.9401  25.618094    31.4236    25.2536 0.0000e+00
    287.410     46.000    -0.9387  25.618632    31.4234    25.2534 0.0000e+00
    291.083     45.000    -0.9379  25.618694    31.4232    25.2532 0.0000e+00
    295.824     44.000    -0.9385  25.617757    31.4232    25.2532 0.0000e+00
    298.952     43.000    -0.9381  25.617443    31.4229    25.2530 0.0000e+00
    303.347     42.000    -0.9382  25.616778    31.4227    25.2528 0.0000e+00
    307.042     41.000    -0.9343  25.619349    31.4227    25.2527 0.0000e+00
    311.120     40.000    -0.9318  25.620652    31.4224    25.2524 0.0000e+00
    315.174     39.000    -0.9227  25.627271    31.4224    25.2521 0.0000e+00
    319.182     38.000    -0.9105  25.636011    31.4220    25.2514 0.0000e+00
    323.703     37.000    -0.8922  25.649468    31.4216    25.2506 0.0000e+00
    328.160     36.000    -0.8478  25.683365    31.4215    25.2491 0.0000e+00
    332.112     35.000    -0.7145  25.783376    31.4173    25.2415 0.0000e+00
    337.408     34.000    -0.4456  25.987107    31.4105    25.2268 0.0000e+00
    341.292     33.000    -0.4077  26.016672    31.4111    25.2259 0.0000e+00
    345.526     32.000    -0.3870  26.032659    31.4114    25.2254 0.0000e+00
    350.150     31.000    -0.3823  26.036340    31.4120    25.2257 0.0000e+00
    353.999     30.000    -0.3869  26.032767    31.4126    25.2264 0.0000e+00
    358.151     29.000    -0.3855  26.033641    31.4129    25.2265 0.0000e+00
    362.200     28.000    -0.3892  26.030264    31.4128    25.2266 0.0000e+00
    366.516     27.000    -0.3827  26.034917    31.4129    25.2264 0.0000e+00
    370.818     26.000    -0.3897  26.028523    31.4122    25.2261 0.0000e+00
    375.224     25.000    -0.4206  26.002410    31.4101    25.2255 0.0000e+00
    379.382     24.000    -0.4383  25.987849    31.4096    25.2258 0.0000e+00
    383.840     23.000    -0.4747  25.957857    31.4081    25.2259 0.0000e+00
    388.146     22.000    -0.4958  25.940075    31.4068    25.2256 0.0000e+00
    391.997     21.000    -0.4952  25.940009    31.4067    25.2255 0.0000e+00
    396.798     20.000    -0.4940  25.940328    31.4065    25.2253 0.0000e+00
    400.314     19.000    -0.4817  25.949363    31.4063    25.2247 0.0000e+00
    405.270     18.000    -0.4123  26.003455    31.4069    25.2227 0.0000e+00
    409.053     17.000    -0.3895  26.020735    31.4068    25.2218 0.0000e+00
    413.875     16.000    -0.3796  26.028162    31.4070    25.2215 0.0000e+00
    417.531     15.000    -0.3728  26.033175    31.4072    25.2214 0.0000e+00
    421.986     14.000    -0.3731  26.032684    31.4074    25.2216 0.0000e+00
    426.099     13.000    -0.3681  26.036284    31.4076    25.2216 0.0000e+00
    430.437     12.000    -0.3554  26.045930    31.4078    25.2213 0.0000e+00
    434.605     11.000    -0.3478  26.051433    31.4078    25.2210 0.0000e+00
    439.565     10.000    -0.3401  26.056913    31.4077    25.2206 0.0000e+00
    443.613      9.000    -0.3391  26.056399    31.4066    25.2197 0.0000e+00
    447.395      8.000    -0.3427  26.051878    31.4049    25.2184 0.0000e+00
    453.664      7.000    -0.3340  26.056814    31.4030    25.2166 0.0000e+00
    457.585      6.000    -0.3103  26.074605    31.4026    25.2154 0.0000e+00
    462.530      5.000    -0.2581  26.115287    31.4031    25.2138 0.0000e+00
    467.113      4.000    -0.1908  26.168483    31.4045    25.2123 0.0000e+00
    471.946      3.000    -0.0804  26.255260    31.4057    25.2087 0.0000e+00
    476.546      2.000    -0.0101  26.310367    31.4063    25.2063 0.0000e+00
    486.606      1.000    -0.0127  26.224529    31.2969    25.1181 0.0000e+00
