* Sea-Bird SBE 19plus Data File:
* FileName = C:\Sea-Bird Data\2014\DY1405\Casts\BON038.hex
* Software Version Seasave V 7.22.3
* Temperature SN = 4530
* Conductivity SN = 4530
* System UpLoad Time = May 11 2014 22:42:02
* Real-Time Sample Interval = 0.2500 seconds
* System UTC = May 11 2014 22:42:02
# nquan = 7                                 
# nvalues = 131                         
# units = specified
# name 0 = timeS: Time, Elapsed [seconds]
# name 1 = prdM: Pressure, Strain Gauge [db]
# name 2 = tv290C: Temperature [ITS-90, deg C]
# name 3 = c0mS/cm: Conductivity [mS/cm]
# name 4 = sal00: Salinity, Practical [PSU]
# name 5 = sigma-t00: Density [sigma-t, Kg/m^3 ]
# name 6 = flag: flag
# span 0 =     73.048,    504.686       
# span 1 =      1.000,     66.000       
# span 2 =    -1.2892,     1.3269       
# span 3 =  16.288524,  27.348178       
# span 4 =    17.8169,    32.2512       
# span 5 =    14.2454,    25.8678       
# span 6 = 0.0000e+00, 0.0000e+00       
# interval = decibars: 1                
# start_time = May 11 2014 22:42:02 [System UTC, header]
# bad_flag = -9.990e-29
# <Sensors count="3" >
#   <sensor Channel="1" >
#     <!-- Count, Temperature -->
#     <TemperatureSensor SensorID="58" >
#       <SerialNumber>4530</SerialNumber>
#       <CalibrationDate>03-Dec-13</CalibrationDate>
#       <A0>1.22471000e-003</A0>
#       <A1>2.66234600e-004</A1>
#       <A2>-3.25282000e-007</A2>
#       <A3>1.63905300e-007</A3>
#       <Slope>1.00000000</Slope>
#       <Offset>0.0000</Offset>
#     </TemperatureSensor>
#   </sensor>
#   <sensor Channel="2" >
#     <!-- Frequency 0, Conductivity -->
#     <ConductivitySensor SensorID="3" >
#       <SerialNumber>4530</SerialNumber>
#       <CalibrationDate>03-Dec-13</CalibrationDate>
#       <UseG_J>1</UseG_J>
#       <!-- Cell const and series R are applicable only for wide range sensors. -->
#       <SeriesR>0.0000</SeriesR>
#       <CellConst>2000.0000</CellConst>
#       <ConductivityType>0</ConductivityType>
#       <Coefficients equation="0" >
#         <A>0.00000000e+000</A>
#         <B>0.00000000e+000</B>
#         <C>0.00000000e+000</C>
#         <D>0.00000000e+000</D>
#         <M>0.0</M>
#         <CPcor>-9.57000000e-008</CPcor>
#       </Coefficients>
#       <Coefficients equation="1" >
#         <G>-9.84131900e-001</G>
#         <H>1.41458700e-001</H>
#         <I>-1.92288200e-004</I>
#         <J>3.59848200e-005</J>
#         <CPcor>-9.57000000e-008</CPcor>
#         <CTcor>3.2500e-006</CTcor>
#         <!-- WBOTC not applicable unless ConductivityType = 1. -->
#         <WBOTC>0.00000000e+000</WBOTC>
#       </Coefficients>
#       <Slope>1.00000000</Slope>
#       <Offset>0.00000</Offset>
#     </ConductivitySensor>
#   </sensor>
#   <sensor Channel="3" >
#     <!-- Count, Pressure, Strain Gauge -->
#     <PressureSensor SensorID="46" >
#       <SerialNumber>4530</SerialNumber>
#       <CalibrationDate>02-Dec-13</CalibrationDate>
#       <PA0>-3.35712300e-001</PA0>
#       <PA1>1.56795400e-002</PA1>
#       <PA2>-6.60390500e-010</PA2>
#       <PTEMPA0>-6.74611800e+001</PTEMPA0>
#       <PTEMPA1>5.06446900e+001</PTEMPA1>
#       <PTEMPA2>-4.65162800e-001</PTEMPA2>
#       <PTCA0>5.24503600e+005</PTCA0>
#       <PTCA1>-3.17070100e-002</PTCA1>
#       <PTCA2>-4.70494400e-002</PTCA2>
#       <PTCB0>2.49031200e+001</PTCB0>
#       <PTCB1>-5.75000000e-004</PTCB1>
#       <PTCB2>0.00000000e+000</PTCB2>
#       <Offset>0.000000</Offset>
#     </PressureSensor>
#   </sensor>
# </Sensors>
# datcnv_date = May 13 2014 00:46:17, 7.22.2 [datcnv_vars = 4]
# datcnv_in = c:\data\seacat\current\bon038.hex c:\data\seacat\current\bon038.XMLCON
# datcnv_skipover = 0
# filter_date = May 13 2014 00:46:17, 7.22.2
# filter_in = c:\data\seacat\current\bon038.cnv
# filter_low_pass_tc_A = 0.500
# filter_low_pass_tc_B = 2.000
# filter_low_pass_A_vars = prdM tv290C c0mS/cm
# filter_low_pass_B_vars =
# alignctd_date = May 13 2014 00:46:17, 7.22.2
# alignctd_in = c:\data\seacat\current\bon038.cnv
# alignctd_adv = tv290C 0.500                                                                                                                                                                                                        
# wildedit_date = May 13 2014 00:46:17, 7.22.2
# wildedit_in = c:\data\seacat\current\bon038.cnv
# wildedit_pass1_nstd = 2.0
# wildedit_pass2_nstd = 15.0
# wildedit_pass2_mindelta = 1.000e-002
# wildedit_npoint = 100
# wildedit_vars = prdM tv290C c0mS/cm
# wildedit_excl_bad_scans = yes
# binavg_date = May 13 2014 00:46:17, 7.22.2
# binavg_in = c:\data\seacat\current\bon038.cnv
# binavg_bintype = decibars
# binavg_binsize = 1
# binavg_excl_bad_scans = yes
# binavg_skipover = 0
# binavg_surface_bin = no, min = 0.000, max = 0.500, value = 0.000
# Derive_date = May 13 2014 00:46:17, 7.22.2 [derive_vars = 2]
# Derive_in = c:\data\seacat\current\bon038.cnv c:\data\seacat\current\BON038.XMLcon
# file_type = ascii
*END*
     73.048      1.000     1.3269  16.288524    17.8169    14.2454 0.0000e+00
     74.711      2.000     0.3491  26.497658    31.2835    25.0912 0.0000e+00
     76.758      3.000     0.3219  26.798855    31.7025    25.4301 0.0000e+00
     82.389      4.000     0.3061  26.864171    31.8033    25.5121 0.0000e+00
     86.116      5.000     0.3072  27.050631    32.0447    25.7065 0.0000e+00
     87.821      6.000     0.3571  27.166890    32.1435    25.7837 0.0000e+00
     89.832      7.000     0.5143  27.230492    32.0617    25.7099 0.0000e+00
     91.878      8.000     0.4442  27.189809    32.0813    25.7292 0.0000e+00
     93.492      9.000     0.3424  27.177150    32.1706    25.8062 0.0000e+00
     95.269     10.000     0.4099  27.293796    32.2512    25.8678 0.0000e+00
     97.351     11.000     0.5010  27.281891    32.1400    25.7736 0.0000e+00
     99.188     12.000     0.4321  27.251227    32.1715    25.8025 0.0000e+00
    100.842     13.000     0.3965  27.279667    32.2452    25.8636 0.0000e+00
    102.843     14.000     0.6025  27.348178    32.1185    25.7509 0.0000e+00
    105.229     15.000     0.4589  27.244452    32.1330    25.7701 0.0000e+00
    107.014     16.000     0.3424  27.229490    32.2348    25.8580 0.0000e+00
    108.894     17.000     0.5415  27.301320    32.1196    25.7550 0.0000e+00
    111.498     18.000     0.2392  26.505809    31.3972    25.1880 0.0000e+00
    113.669     19.000    -0.0475  26.163149    31.2418    25.0751 0.0000e+00
    115.165     20.000    -0.0471  26.162524    31.2400    25.0736 0.0000e+00
    117.042     21.000    -0.0451  26.162497    31.2373    25.0714 0.0000e+00
    119.583     22.000    -0.0412  26.163960    31.2347    25.0691 0.0000e+00
    121.297     23.000    -0.0366  26.167799    31.2345    25.0687 0.0000e+00
    122.750     24.000    -0.0377  26.167915    31.2352    25.0694 0.0000e+00
    124.755     25.000    -0.0420  26.166364    31.2370    25.0710 0.0000e+00
    127.030     26.000    -0.0551  26.159200    31.2404    25.0743 0.0000e+00
    128.605     27.000    -0.0704  26.150431    31.2440    25.0778 0.0000e+00
    130.618     28.000    -0.1010  26.132104    31.2506    25.0844 0.0000e+00
    133.065     29.000    -0.2409  26.037351    31.2687    25.1046 0.0000e+00
    134.915     30.000    -0.4346  25.893943    31.2776    25.1190 0.0000e+00
    137.000     31.000    -0.4788  25.867722    31.2878    25.1288 0.0000e+00
    139.586     32.000    -0.5869  25.792654    31.2990    25.1416 0.0000e+00
    141.459     33.000    -0.7934  25.644545    31.3144    25.1608 0.0000e+00
    143.539     34.000    -0.9741  25.514479    31.3269    25.1763 0.0000e+00
    146.122     35.000    -1.1042  25.420677    31.3354    25.1867 0.0000e+00
    148.091     36.000    -1.1327  25.400448    31.3372    25.1889 0.0000e+00
    149.845     37.000    -1.1393  25.395916    31.3374    25.1892 0.0000e+00
    151.840     38.000    -1.1592  25.383380    31.3406    25.1924 0.0000e+00
    153.900     39.000    -1.2189  25.346055    31.3519    25.2030 0.0000e+00
    155.892     40.000    -1.2611  25.321241    31.3618    25.2121 0.0000e+00
    157.989     41.000    -1.2731  25.313399    31.3631    25.2135 0.0000e+00
    160.173     42.000    -1.2814  25.307173    31.3628    25.2134 0.0000e+00
    162.661     43.000    -1.2864  25.303668    31.3627    25.2134 0.0000e+00
    165.440     44.000    -1.2874  25.303495    31.3629    25.2137 0.0000e+00
    167.643     45.000    -1.2838  25.306899    31.3632    25.2138 0.0000e+00
    170.189     46.000    -1.2773  25.312677    31.3636    25.2140 0.0000e+00
    172.961     47.000    -1.2646  25.324338    31.3656    25.2153 0.0000e+00
    174.882     48.000    -1.2630  25.326147    31.3658    25.2154 0.0000e+00
    177.169     49.000    -1.2625  25.327085    31.3659    25.2155 0.0000e+00
    180.125     50.000    -1.2615  25.328531    31.3663    25.2158 0.0000e+00
    181.843     51.000    -1.2572  25.332799    31.3670    25.2162 0.0000e+00
    184.024     52.000    -1.2531  25.336793    31.3675    25.2166 0.0000e+00
    186.828     53.000    -1.2483  25.341485    31.3683    25.2171 0.0000e+00
    188.867     54.000    -1.2482  25.341982    31.3683    25.2170 0.0000e+00
    190.633     55.000    -1.2478  25.342739    31.3683    25.2170 0.0000e+00
    193.604     56.000    -1.2478  25.343168    31.3683    25.2170 0.0000e+00
    195.732     57.000    -1.2500  25.341601    31.3679    25.2168 0.0000e+00
    197.797     58.000    -1.2492  25.342806    31.3681    25.2169 0.0000e+00
    200.523     59.000    -1.2488  25.343548    31.3681    25.2169 0.0000e+00
    203.129     60.000    -1.2482  25.344448    31.3681    25.2169 0.0000e+00
    205.410     61.000    -1.2496  25.343675    31.3679    25.2168 0.0000e+00
    208.218     62.000    -1.2495  25.344245    31.3680    25.2169 0.0000e+00
    210.588     63.000    -1.2481  25.345806    31.3681    25.2169 0.0000e+00
    212.863     64.000    -1.2432  25.350691    31.3690    25.2175 0.0000e+00
    215.138     65.000    -1.2397  25.354094    31.3694    25.2177 0.0000e+00
    220.681     66.000    -1.2380  25.355871    31.3694    25.2177 0.0000e+00
    226.508     65.000    -1.2376  25.355760    31.3694    25.2177 0.0000e+00
    229.412     64.000    -1.2422  25.351414    31.3689    25.2174 0.0000e+00
    231.716     63.000    -1.2465  25.347256    31.3684    25.2171 0.0000e+00
    234.333     62.000    -1.2480  25.345509    31.3682    25.2169 0.0000e+00
    237.218     61.000    -1.2499  25.343472    31.3680    25.2168 0.0000e+00
    239.786     60.000    -1.2500  25.342815    31.3678    25.2167 0.0000e+00
    242.554     59.000    -1.2463  25.345604    31.3683    25.2170 0.0000e+00
    245.510     58.000    -1.2442  25.347160    31.3688    25.2173 0.0000e+00
    248.517     57.000    -1.2447  25.346275    31.3687    25.2173 0.0000e+00
    251.714     56.000    -1.2478  25.343057    31.3681    25.2169 0.0000e+00
    255.096     55.000    -1.2523  25.338595    31.3674    25.2164 0.0000e+00
    258.643     54.000    -1.2540  25.336713    31.3672    25.2163 0.0000e+00
    262.281     53.000    -1.2566  25.333910    31.3667    25.2160 0.0000e+00
    266.272     52.000    -1.2555  25.334540    31.3670    25.2162 0.0000e+00
    270.058     51.000    -1.2571  25.332467    31.3664    25.2158 0.0000e+00
    274.471     50.000    -1.2600  25.329334    31.3658    25.2153 0.0000e+00
    277.867     49.000    -1.2601  25.328992    31.3660    25.2155 0.0000e+00
    282.654     48.000    -1.2604  25.328218    31.3659    25.2154 0.0000e+00
    285.962     47.000    -1.2639  25.324058    31.3645    25.2143 0.0000e+00
    290.180     46.000    -1.2797  25.309616    31.3620    25.2127 0.0000e+00
    294.147     45.000    -1.2850  25.304614    31.3613    25.2123 0.0000e+00
    298.351     44.000    -1.2859  25.303296    31.3611    25.2121 0.0000e+00
    302.304     43.000    -1.2892  25.299818    31.3604    25.2116 0.0000e+00
    307.153     42.000    -1.2859  25.301427    31.3597    25.2110 0.0000e+00
    311.536     41.000    -1.2814  25.304456    31.3597    25.2109 0.0000e+00
    316.445     40.000    -1.2767  25.307411    31.3594    25.2105 0.0000e+00
    321.280     39.000    -1.2692  25.311094    31.3571    25.2085 0.0000e+00
    326.530     38.000    -1.2627  25.311156    31.3509    25.2034 0.0000e+00
    331.449     37.000    -1.1665  25.370270    31.3311    25.1848 0.0000e+00
    336.585     36.000    -1.0946  25.417928    31.3210    25.1748 0.0000e+00
    342.608     35.000    -1.0396  25.455986    31.3157    25.1690 0.0000e+00
    348.650     34.000    -0.9799  25.498256    31.3111    25.1636 0.0000e+00
    355.549     33.000    -0.8837  25.568738    31.3064    25.1571 0.0000e+00
    363.097     32.000    -0.7502  25.663143    31.2951    25.1438 0.0000e+00
    370.864     31.000    -0.6395  25.740404    31.2843    25.1315 0.0000e+00
    377.944     30.000    -0.5686  25.794459    31.2837    25.1286 0.0000e+00
    384.152     29.000    -0.5525  25.803733    31.2799    25.1250 0.0000e+00
    389.225     28.000    -0.5012  25.836733    31.2715    25.1164 0.0000e+00
    394.118     27.000    -0.4097  25.902648    31.2653    25.1081 0.0000e+00
    399.011     26.000    -0.1776  26.067064    31.2447    25.0827 0.0000e+00
    403.206     25.000    -0.0934  26.124060    31.2340    25.0707 0.0000e+00
    408.072     24.000    -0.0559  26.149880    31.2301    25.0660 0.0000e+00
    412.128     23.000    -0.0577  26.148139    31.2302    25.0662 0.0000e+00
    417.225     22.000    -0.0642  26.142095    31.2295    25.0659 0.0000e+00
    420.550     21.000    -0.0641  26.141241    31.2288    25.0653 0.0000e+00
    424.593     20.000    -0.0642  26.140786    31.2289    25.0654 0.0000e+00
    428.336     19.000    -0.0623  26.141493    31.2285    25.0650 0.0000e+00
    431.907     18.000    -0.0620  26.140683    31.2277    25.0643 0.0000e+00
    435.302     17.000    -0.0614  26.140331    31.2271    25.0639 0.0000e+00
    438.940     16.000    -0.0613  26.139943    31.2271    25.0638 0.0000e+00
    442.309     15.000    -0.0603  26.140331    31.2271    25.0638 0.0000e+00
    445.585     14.000    -0.0514  26.146870    31.2272    25.0635 0.0000e+00
    449.205     13.000    -0.0496  26.147773    31.2271    25.0634 0.0000e+00
    452.872     12.000    -0.0365  26.157615    31.2272    25.0629 0.0000e+00
    456.243     11.000    -0.0262  26.165214    31.2272    25.0625 0.0000e+00
    460.333     10.000    -0.0215  26.168528    31.2273    25.0624 0.0000e+00
    464.024      9.000    -0.0234  26.166716    31.2274    25.0625 0.0000e+00
    468.176      8.000    -0.0162  26.172061    31.2277    25.0624 0.0000e+00
    472.038      7.000     0.0020  26.185978    31.2279    25.0618 0.0000e+00
    476.829      6.000     0.0392  26.214610    31.2280    25.0603 0.0000e+00
    480.876      5.000     0.0716  26.239550    31.2281    25.0591 0.0000e+00
    485.208      4.000     0.0966  26.258639    31.2281    25.0580 0.0000e+00
    489.185      3.000     0.0769  26.243018    31.2284    25.0590 0.0000e+00
    493.904      2.000     0.1214  26.277378    31.2285    25.0572 0.0000e+00
    504.686      1.000     0.1329  26.212614    31.1327    24.9795 0.0000e+00
