* Sea-Bird SBE 19plus Data File:
* FileName = C:\Sea-Bird Data\2014\DY1405\Casts\BON027.hex
* Software Version Seasave V 7.22.3
* Temperature SN = 4530
* Conductivity SN = 4530
* System UpLoad Time = May 10 2014 19:51:05
* Real-Time Sample Interval = 0.2500 seconds
* System UTC = May 10 2014 19:51:05
# nquan = 7                                 
# nvalues = 127                         
# units = specified
# name 0 = timeS: Time, Elapsed [seconds]
# name 1 = prdM: Pressure, Strain Gauge [db]
# name 2 = tv290C: Temperature [ITS-90, deg C]
# name 3 = c0mS/cm: Conductivity [mS/cm]
# name 4 = sal00: Salinity, Practical [PSU]
# name 5 = sigma-t00: Density [sigma-t, Kg/m^3 ]
# name 6 = flag: flag
# span 0 =    159.487,    582.372       
# span 1 =      1.000,     64.000       
# span 2 =     2.1768,     3.1816       
# span 3 =  19.304442,  29.704150       
# span 4 =    20.2174,    32.6379       
# span 5 =    16.0961,    26.0023       
# span 6 = 0.0000e+00, 0.0000e+00       
# interval = decibars: 1                
# start_time = May 10 2014 19:51:05 [System UTC, header]
# bad_flag = -9.990e-29
# <Sensors count="3" >
#   <sensor Channel="1" >
#     <!-- Count, Temperature -->
#     <TemperatureSensor SensorID="58" >
#       <SerialNumber>4530</SerialNumber>
#       <CalibrationDate>03-Dec-13</CalibrationDate>
#       <A0>1.22471000e-003</A0>
#       <A1>2.66234600e-004</A1>
#       <A2>-3.25282000e-007</A2>
#       <A3>1.63905300e-007</A3>
#       <Slope>1.00000000</Slope>
#       <Offset>0.0000</Offset>
#     </TemperatureSensor>
#   </sensor>
#   <sensor Channel="2" >
#     <!-- Frequency 0, Conductivity -->
#     <ConductivitySensor SensorID="3" >
#       <SerialNumber>4530</SerialNumber>
#       <CalibrationDate>03-Dec-13</CalibrationDate>
#       <UseG_J>1</UseG_J>
#       <!-- Cell const and series R are applicable only for wide range sensors. -->
#       <SeriesR>0.0000</SeriesR>
#       <CellConst>2000.0000</CellConst>
#       <ConductivityType>0</ConductivityType>
#       <Coefficients equation="0" >
#         <A>0.00000000e+000</A>
#         <B>0.00000000e+000</B>
#         <C>0.00000000e+000</C>
#         <D>0.00000000e+000</D>
#         <M>0.0</M>
#         <CPcor>-9.57000000e-008</CPcor>
#       </Coefficients>
#       <Coefficients equation="1" >
#         <G>-9.84131900e-001</G>
#         <H>1.41458700e-001</H>
#         <I>-1.92288200e-004</I>
#         <J>3.59848200e-005</J>
#         <CPcor>-9.57000000e-008</CPcor>
#         <CTcor>3.2500e-006</CTcor>
#         <!-- WBOTC not applicable unless ConductivityType = 1. -->
#         <WBOTC>0.00000000e+000</WBOTC>
#       </Coefficients>
#       <Slope>1.00000000</Slope>
#       <Offset>0.00000</Offset>
#     </ConductivitySensor>
#   </sensor>
#   <sensor Channel="3" >
#     <!-- Count, Pressure, Strain Gauge -->
#     <PressureSensor SensorID="46" >
#       <SerialNumber>4530</SerialNumber>
#       <CalibrationDate>02-Dec-13</CalibrationDate>
#       <PA0>-3.35712300e-001</PA0>
#       <PA1>1.56795400e-002</PA1>
#       <PA2>-6.60390500e-010</PA2>
#       <PTEMPA0>-6.74611800e+001</PTEMPA0>
#       <PTEMPA1>5.06446900e+001</PTEMPA1>
#       <PTEMPA2>-4.65162800e-001</PTEMPA2>
#       <PTCA0>5.24503600e+005</PTCA0>
#       <PTCA1>-3.17070100e-002</PTCA1>
#       <PTCA2>-4.70494400e-002</PTCA2>
#       <PTCB0>2.49031200e+001</PTCB0>
#       <PTCB1>-5.75000000e-004</PTCB1>
#       <PTCB2>0.00000000e+000</PTCB2>
#       <Offset>0.000000</Offset>
#     </PressureSensor>
#   </sensor>
# </Sensors>
# datcnv_date = May 12 2014 21:29:27, 7.22.2 [datcnv_vars = 4]
# datcnv_in = c:\data\seacat\current\bon027.hex c:\data\seacat\current\bon027.XMLCON
# datcnv_skipover = 0
# filter_date = May 12 2014 21:29:27, 7.22.2
# filter_in = c:\data\seacat\current\bon027.cnv
# filter_low_pass_tc_A = 0.500
# filter_low_pass_tc_B = 2.000
# filter_low_pass_A_vars = prdM tv290C c0mS/cm
# filter_low_pass_B_vars =
# alignctd_date = May 12 2014 21:29:27, 7.22.2
# alignctd_in = c:\data\seacat\current\bon027.cnv
# alignctd_adv = tv290C 0.500                                                                                                                                                                                                        
# wildedit_date = May 12 2014 21:29:27, 7.22.2
# wildedit_in = c:\data\seacat\current\bon027.cnv
# wildedit_pass1_nstd = 2.0
# wildedit_pass2_nstd = 15.0
# wildedit_pass2_mindelta = 1.000e-002
# wildedit_npoint = 100
# wildedit_vars = prdM tv290C c0mS/cm
# wildedit_excl_bad_scans = yes
# binavg_date = May 12 2014 21:29:27, 7.22.2
# binavg_in = c:\data\seacat\current\bon027.cnv
# binavg_bintype = decibars
# binavg_binsize = 1
# binavg_excl_bad_scans = yes
# binavg_skipover = 0
# binavg_surface_bin = no, min = 0.000, max = 0.500, value = 0.000
# Derive_date = May 12 2014 21:29:28, 7.22.2 [derive_vars = 2]
# Derive_in = c:\data\seacat\current\bon027.cnv c:\data\seacat\current\BON027.XMLcon
# file_type = ascii
*END*
    159.487      1.000     3.1816  19.304442    20.2174    16.0961 0.0000e+00
    161.146      2.000     2.8161  29.047853    32.0019    25.5077 0.0000e+00
    163.198      3.000     2.8943  29.488439    32.4586    25.8657 0.0000e+00
    168.110      4.000     2.9296  29.598334    32.5559    25.9404 0.0000e+00
    173.267      5.000     2.9431  29.662606    32.6197    25.9902 0.0000e+00
    175.487      6.000     3.0389  29.676116    32.5386    25.9172 0.0000e+00
    177.924      7.000     2.9545  29.653362    32.5959    25.9702 0.0000e+00
    179.894      8.000     3.0066  29.674764    32.5685    25.9439 0.0000e+00
    182.050      9.000     2.9737  29.653945    32.5761    25.9527 0.0000e+00
    184.091     10.000     3.0107  29.685683    32.5766    25.9499 0.0000e+00
    186.029     11.000     3.0125  29.692754    32.5828    25.9547 0.0000e+00
    188.029     12.000     3.0429  29.692290    32.5509    25.9267 0.0000e+00
    191.099     13.000     2.9139  29.649900    32.6296    26.0006 0.0000e+00
    192.863     14.000     2.9702  29.704150    32.6379    26.0023 0.0000e+00
    195.165     15.000     2.9878  29.684258    32.5954    25.9669 0.0000e+00
    197.922     16.000     2.9219  29.573772    32.5274    25.9183 0.0000e+00
    201.580     17.000     2.4843  29.136115    32.4359    25.8810 0.0000e+00
    203.018     18.000     2.4337  29.099264    32.4415    25.8895 0.0000e+00
    205.608     19.000     2.3937  29.066303    32.4411    25.8923 0.0000e+00
    208.982     20.000     2.3651  29.042461    32.4403    25.8939 0.0000e+00
    211.007     21.000     2.3529  29.032305    32.4397    25.8943 0.0000e+00
    212.605     22.000     2.3453  29.026205    32.4393    25.8946 0.0000e+00
    215.809     23.000     2.3424  29.023793    32.4388    25.8944 0.0000e+00
    218.877     24.000     2.3368  29.019523    32.4387    25.8947 0.0000e+00
    220.344     25.000     2.3253  29.010340    32.4385    25.8955 0.0000e+00
    222.499     26.000     2.3134  29.000891    32.4384    25.8964 0.0000e+00
    226.015     27.000     2.3054  28.994650    32.4383    25.8969 0.0000e+00
    227.465     28.000     2.2963  28.987570    32.4383    25.8976 0.0000e+00
    229.645     29.000     2.2716  28.967170    32.4378    25.8990 0.0000e+00
    232.374     30.000     2.2586  28.957105    32.4381    25.9002 0.0000e+00
    233.994     31.000     2.2390  28.940329    32.4368    25.9007 0.0000e+00
    236.539     32.000     2.2314  28.934394    32.4366    25.9012 0.0000e+00
    238.867     33.000     2.2287  28.932469    32.4365    25.9012 0.0000e+00
    240.772     34.000     2.2282  28.932576    32.4366    25.9014 0.0000e+00
    242.809     35.000     2.2266  28.931627    32.4365    25.9014 0.0000e+00
    245.208     36.000     2.2241  28.929865    32.4363    25.9015 0.0000e+00
    247.846     37.000     2.2174  28.924708    32.4362    25.9019 0.0000e+00
    250.456     38.000     2.2150  28.923146    32.4362    25.9021 0.0000e+00
    252.124     39.000     2.2152  28.923739    32.4362    25.9020 0.0000e+00
    254.366     40.000     2.2136  28.922795    32.4361    25.9021 0.0000e+00
    257.688     41.000     2.2055  28.916400    32.4359    25.9025 0.0000e+00
    259.618     42.000     2.2045  28.916168    32.4361    25.9028 0.0000e+00
    261.281     43.000     2.2032  28.915366    32.4359    25.9027 0.0000e+00
    262.902     44.000     2.1984  28.911816    32.4359    25.9030 0.0000e+00
    265.309     45.000     2.1977  28.911714    32.4359    25.9031 0.0000e+00
    267.371     46.000     2.1975  28.912221    32.4362    25.9034 0.0000e+00
    268.922     47.000     2.1933  28.909170    32.4362    25.9037 0.0000e+00
    270.522     48.000     2.1895  28.906402    32.4361    25.9039 0.0000e+00
    272.481     49.000     2.1884  28.905905    32.4360    25.9039 0.0000e+00
    274.277     50.000     2.1873  28.905629    32.4363    25.9042 0.0000e+00
    275.773     51.000     2.1833  28.902629    32.4361    25.9044 0.0000e+00
    278.185     52.000     2.1855  28.905024    32.4363    25.9043 0.0000e+00
    280.536     53.000     2.1860  28.905763    32.4361    25.9042 0.0000e+00
    281.982     54.000     2.1836  28.904217    32.4361    25.9044 0.0000e+00
    283.356     55.000     2.1839  28.905040    32.4363    25.9045 0.0000e+00
    285.250     56.000     2.1849  28.906322    32.4363    25.9044 0.0000e+00
    288.088     57.000     2.1901  28.911022    32.4363    25.9040 0.0000e+00
    289.729     58.000     2.1893  28.910837    32.4363    25.9041 0.0000e+00
    291.132     59.000     2.1875  28.909823    32.4364    25.9043 0.0000e+00
    292.928     60.000     2.1863  28.909185    32.4362    25.9043 0.0000e+00
    295.124     61.000     2.1864  28.909891    32.4365    25.9044 0.0000e+00
    296.889     62.000     2.1824  28.906955    32.4364    25.9047 0.0000e+00
    298.737     63.000     2.1804  28.905935    32.4366    25.9050 0.0000e+00
    305.366     64.000     2.1786  28.904834    32.4365    25.9051 0.0000e+00
    314.799     63.000     2.1768  28.902741    32.4363    25.9050 0.0000e+00
    318.288     62.000     2.1774  28.902903    32.4365    25.9051 0.0000e+00
    321.240     61.000     2.1798  28.904553    32.4366    25.9050 0.0000e+00
    324.114     60.000     2.1830  28.906813    32.4367    25.9049 0.0000e+00
    327.381     59.000     2.1854  28.908404    32.4367    25.9047 0.0000e+00
    330.227     58.000     2.1859  28.908420    32.4368    25.9047 0.0000e+00
    333.184     57.000     2.1863  28.908440    32.4370    25.9048 0.0000e+00
    336.724     56.000     2.1854  28.907321    32.4370    25.9050 0.0000e+00
    339.963     55.000     2.1913  28.911800    32.4371    25.9046 0.0000e+00
    343.703     54.000     2.1987  28.917442    32.4371    25.9040 0.0000e+00
    347.397     53.000     2.1968  28.915413    32.4370    25.9041 0.0000e+00
    351.173     52.000     2.1957  28.914355    32.4374    25.9045 0.0000e+00
    354.993     51.000     2.1937  28.912096    32.4372    25.9045 0.0000e+00
    358.749     50.000     2.1926  28.910758    32.4372    25.9045 0.0000e+00
    362.830     49.000     2.1956  28.912949    32.4374    25.9045 0.0000e+00
    366.340     48.000     2.1955  28.912556    32.4376    25.9046 0.0000e+00
    370.355     47.000     2.2058  28.920723    32.4377    25.9039 0.0000e+00
    373.505     46.000     2.2156  28.928371    32.4377    25.9032 0.0000e+00
    377.061     45.000     2.2155  28.928053    32.4379    25.9034 0.0000e+00
    381.615     44.000     2.2175  28.929192    32.4379    25.9032 0.0000e+00
    385.365     43.000     2.2201  28.931066    32.4381    25.9032 0.0000e+00
    391.478     42.000     2.2225  28.932712    32.4382    25.9031 0.0000e+00
    394.988     41.000     2.2199  28.930153    32.4382    25.9033 0.0000e+00
    399.497     40.000     2.2160  28.926618    32.4384    25.9037 0.0000e+00
    403.916     39.000     2.2218  28.930967    32.4384    25.9033 0.0000e+00
    408.929     38.000     2.2199  28.928957    32.4384    25.9034 0.0000e+00
    413.181     37.000     2.2277  28.934974    32.4384    25.9029 0.0000e+00
    418.584     36.000     2.2500  28.953541    32.4392    25.9018 0.0000e+00
    423.492     35.000     2.2576  28.959201    32.4389    25.9010 0.0000e+00
    428.163     34.000     2.2605  28.961358    32.4392    25.9010 0.0000e+00
    432.467     33.000     2.2586  28.959496    32.4394    25.9013 0.0000e+00
    437.791     32.000     2.2411  28.944138    32.4388    25.9022 0.0000e+00
    442.865     31.000     2.2511  28.952403    32.4394    25.9018 0.0000e+00
    448.615     30.000     2.2742  28.971290    32.4397    25.9003 0.0000e+00
    453.994     29.000     2.2821  28.977585    32.4399    25.9000 0.0000e+00
    459.029     28.000     2.2889  28.982874    32.4401    25.8996 0.0000e+00
    463.751     27.000     2.3018  28.993309    32.4404    25.8988 0.0000e+00
    468.657     26.000     2.3042  28.995029    32.4406    25.8988 0.0000e+00
    472.765     25.000     2.3086  28.998220    32.4406    25.8984 0.0000e+00
    479.339     24.000     2.3131  29.001543    32.4406    25.8981 0.0000e+00
    482.400     23.000     2.3221  29.008469    32.4406    25.8974 0.0000e+00
    489.746     22.000     2.3232  29.008865    32.4405    25.8972 0.0000e+00
    491.664     21.000     2.3348  29.018553    32.4411    25.8969 0.0000e+00
    497.590     20.000     2.3403  29.022243    32.4406    25.8960 0.0000e+00
    500.339     19.000     2.3573  29.036003    32.4408    25.8949 0.0000e+00
    506.300     18.000     2.4224  29.088944    32.4403    25.8894 0.0000e+00
    509.900     17.000     2.4794  29.135144    32.4397    25.8844 0.0000e+00
    514.568     16.000     2.5253  29.172739    32.4398    25.8809 0.0000e+00
    519.787     15.000     2.5711  29.209569    32.4390    25.8766 0.0000e+00
    522.684     14.000     2.5281  29.174538    32.4402    25.8810 0.0000e+00
    527.280     13.000     2.6047  29.237407    32.4401    25.8748 0.0000e+00
    530.451     12.000     2.6184  29.246578    32.4379    25.8720 0.0000e+00
    534.224     11.000     2.7129  29.323718    32.4370    25.8636 0.0000e+00
    539.033     10.000     2.7687  29.367360    32.4344    25.8568 0.0000e+00
    544.700      9.000     2.7790  29.377642    32.4370    25.8581 0.0000e+00
    548.124      8.000     2.7805  29.378231    32.4368    25.8578 0.0000e+00
    552.664      7.000     2.7782  29.376048    32.4370    25.8581 0.0000e+00
    556.733      6.000     2.7871  29.383044    32.4370    25.8574 0.0000e+00
    561.524      5.000     2.7981  29.391474    32.4367    25.8563 0.0000e+00
    565.076      4.000     2.7948  29.388480    32.4369    25.8567 0.0000e+00
    570.573      3.000     2.7811  29.377265    32.4377    25.8584 0.0000e+00
    574.714      2.000     2.7930  29.386343    32.4372    25.8571 0.0000e+00
    582.372      1.000     2.7969  29.387833    32.4356    25.8555 0.0000e+00
