* Sea-Bird SBE 19plus Data File:
* FileName = C:\Sea-Bird Data\2014\DY1405\Casts\BON033.hex
* Software Version Seasave V 7.22.3
* Temperature SN = 4530
* Conductivity SN = 4530
* System UpLoad Time = May 11 2014 09:21:42
* Real-Time Sample Interval = 0.2500 seconds
* System UTC = May 11 2014 09:21:42
# nquan = 7                                 
# nvalues = 123                         
# units = specified
# name 0 = timeS: Time, Elapsed [seconds]
# name 1 = prdM: Pressure, Strain Gauge [db]
# name 2 = tv290C: Temperature [ITS-90, deg C]
# name 3 = c0mS/cm: Conductivity [mS/cm]
# name 4 = sal00: Salinity, Practical [PSU]
# name 5 = sigma-t00: Density [sigma-t, Kg/m^3 ]
# name 6 = flag: flag
# span 0 =    319.768,    714.056       
# span 1 =      1.000,     62.000       
# span 2 =     1.0772,     2.4157       
# span 3 =  25.221840,  29.137355       
# span 4 =    27.8516,    32.5374       
# span 5 =    22.2317,    25.9778       
# span 6 = 0.0000e+00, 0.0000e+00       
# interval = decibars: 1                
# start_time = May 11 2014 09:21:42 [System UTC, header]
# bad_flag = -9.990e-29
# <Sensors count="3" >
#   <sensor Channel="1" >
#     <!-- Count, Temperature -->
#     <TemperatureSensor SensorID="58" >
#       <SerialNumber>4530</SerialNumber>
#       <CalibrationDate>03-Dec-13</CalibrationDate>
#       <A0>1.22471000e-003</A0>
#       <A1>2.66234600e-004</A1>
#       <A2>-3.25282000e-007</A2>
#       <A3>1.63905300e-007</A3>
#       <Slope>1.00000000</Slope>
#       <Offset>0.0000</Offset>
#     </TemperatureSensor>
#   </sensor>
#   <sensor Channel="2" >
#     <!-- Frequency 0, Conductivity -->
#     <ConductivitySensor SensorID="3" >
#       <SerialNumber>4530</SerialNumber>
#       <CalibrationDate>03-Dec-13</CalibrationDate>
#       <UseG_J>1</UseG_J>
#       <!-- Cell const and series R are applicable only for wide range sensors. -->
#       <SeriesR>0.0000</SeriesR>
#       <CellConst>2000.0000</CellConst>
#       <ConductivityType>0</ConductivityType>
#       <Coefficients equation="0" >
#         <A>0.00000000e+000</A>
#         <B>0.00000000e+000</B>
#         <C>0.00000000e+000</C>
#         <D>0.00000000e+000</D>
#         <M>0.0</M>
#         <CPcor>-9.57000000e-008</CPcor>
#       </Coefficients>
#       <Coefficients equation="1" >
#         <G>-9.84131900e-001</G>
#         <H>1.41458700e-001</H>
#         <I>-1.92288200e-004</I>
#         <J>3.59848200e-005</J>
#         <CPcor>-9.57000000e-008</CPcor>
#         <CTcor>3.2500e-006</CTcor>
#         <!-- WBOTC not applicable unless ConductivityType = 1. -->
#         <WBOTC>0.00000000e+000</WBOTC>
#       </Coefficients>
#       <Slope>1.00000000</Slope>
#       <Offset>0.00000</Offset>
#     </ConductivitySensor>
#   </sensor>
#   <sensor Channel="3" >
#     <!-- Count, Pressure, Strain Gauge -->
#     <PressureSensor SensorID="46" >
#       <SerialNumber>4530</SerialNumber>
#       <CalibrationDate>02-Dec-13</CalibrationDate>
#       <PA0>-3.35712300e-001</PA0>
#       <PA1>1.56795400e-002</PA1>
#       <PA2>-6.60390500e-010</PA2>
#       <PTEMPA0>-6.74611800e+001</PTEMPA0>
#       <PTEMPA1>5.06446900e+001</PTEMPA1>
#       <PTEMPA2>-4.65162800e-001</PTEMPA2>
#       <PTCA0>5.24503600e+005</PTCA0>
#       <PTCA1>-3.17070100e-002</PTCA1>
#       <PTCA2>-4.70494400e-002</PTCA2>
#       <PTCB0>2.49031200e+001</PTCB0>
#       <PTCB1>-5.75000000e-004</PTCB1>
#       <PTCB2>0.00000000e+000</PTCB2>
#       <Offset>0.000000</Offset>
#     </PressureSensor>
#   </sensor>
# </Sensors>
# datcnv_date = May 13 2014 00:16:04, 7.22.2 [datcnv_vars = 4]
# datcnv_in = c:\data\seacat\current\bon033.hex c:\data\seacat\current\bon033.XMLCON
# datcnv_skipover = 0
# filter_date = May 13 2014 00:16:04, 7.22.2
# filter_in = c:\data\seacat\current\bon033.cnv
# filter_low_pass_tc_A = 0.500
# filter_low_pass_tc_B = 2.000
# filter_low_pass_A_vars = prdM tv290C c0mS/cm
# filter_low_pass_B_vars =
# alignctd_date = May 13 2014 00:16:04, 7.22.2
# alignctd_in = c:\data\seacat\current\bon033.cnv
# alignctd_adv = tv290C 0.500                                                                                                                                                                                                        
# wildedit_date = May 13 2014 00:16:04, 7.22.2
# wildedit_in = c:\data\seacat\current\bon033.cnv
# wildedit_pass1_nstd = 2.0
# wildedit_pass2_nstd = 15.0
# wildedit_pass2_mindelta = 1.000e-002
# wildedit_npoint = 100
# wildedit_vars = prdM tv290C c0mS/cm
# wildedit_excl_bad_scans = yes
# binavg_date = May 13 2014 00:16:04, 7.22.2
# binavg_in = c:\data\seacat\current\bon033.cnv
# binavg_bintype = decibars
# binavg_binsize = 1
# binavg_excl_bad_scans = yes
# binavg_skipover = 0
# binavg_surface_bin = no, min = 0.000, max = 0.500, value = 0.000
# Derive_date = May 13 2014 00:16:04, 7.22.2 [derive_vars = 2]
# Derive_in = c:\data\seacat\current\bon033.cnv c:\data\seacat\current\BON033.XMLcon
# file_type = ascii
*END*
    319.768      1.000     2.2873  25.221840    27.8516    22.2317 0.0000e+00
    322.059      2.000     2.2578  28.787175    32.2440    25.7451 0.0000e+00
    324.459      3.000     2.2637  28.940960    32.4276    25.8915 0.0000e+00
    330.509      4.000     2.2596  28.973469    32.4714    25.9269 0.0000e+00
    332.940      5.000     2.2988  29.028022    32.4983    25.9453 0.0000e+00
    335.092      6.000     2.2731  28.972151    32.4549    25.9126 0.0000e+00
    336.703      7.000     2.2816  29.029093    32.5161    25.9609 0.0000e+00
    338.637      8.000     2.3627  29.067011    32.4795    25.9254 0.0000e+00
    340.668      9.000     2.3786  29.069354    32.4657    25.9131 0.0000e+00
    342.410     10.000     2.3654  29.085016    32.4979    25.9399 0.0000e+00
    344.285     11.000     2.3932  29.110847    32.5008    25.9401 0.0000e+00
    346.302     12.000     2.4157  29.116221    32.4840    25.9248 0.0000e+00
    348.181     13.000     2.3905  29.112008    32.5039    25.9428 0.0000e+00
    350.164     14.000     2.3821  29.126982    32.5304    25.9646 0.0000e+00
    352.265     15.000     2.3957  29.137355    32.5288    25.9622 0.0000e+00
    354.517     16.000     2.3903  29.131159    32.5261    25.9605 0.0000e+00
    356.840     17.000     2.2840  29.052730    32.5374    25.9778 0.0000e+00
    358.604     18.000     2.0049  28.662977    32.3388    25.8396 0.0000e+00
    360.770     19.000     1.9112  28.550153    32.2934    25.8100 0.0000e+00
    363.324     20.000     1.8979  28.536045    32.2888    25.8073 0.0000e+00
    365.236     21.000     1.8756  28.517579    32.2880    25.8082 0.0000e+00
    367.126     22.000     1.8609  28.506378    32.2885    25.8096 0.0000e+00
    369.318     23.000     1.8528  28.499731    32.2879    25.8097 0.0000e+00
    371.879     24.000     1.8284  28.479321    32.2868    25.8106 0.0000e+00
    373.883     25.000     1.7395  28.404376    32.2835    25.8141 0.0000e+00
    375.838     26.000     1.6138  28.298761    32.2792    25.8192 0.0000e+00
    378.210     27.000     1.4663  28.179333    32.2798    25.8294 0.0000e+00
    380.156     28.000     1.3349  28.068148    32.2739    25.8332 0.0000e+00
    382.596     29.000     1.2950  28.035761    32.2735    25.8353 0.0000e+00
    384.638     30.000     1.2629  28.008355    32.2713    25.8356 0.0000e+00
    386.269     31.000     1.2346  27.985400    32.2708    25.8369 0.0000e+00
    388.389     32.000     1.2017  27.959847    32.2717    25.8397 0.0000e+00
    390.655     33.000     1.1693  27.934809    32.2728    25.8426 0.0000e+00
    392.628     34.000     1.1547  27.924265    32.2739    25.8444 0.0000e+00
    394.297     35.000     1.1370  27.913018    32.2773    25.8482 0.0000e+00
    396.017     36.000     1.1240  27.907589    32.2833    25.8538 0.0000e+00
    398.278     37.000     1.1197  27.907454    32.2870    25.8570 0.0000e+00
    400.472     38.000     1.1099  27.900502    32.2877    25.8582 0.0000e+00
    402.291     39.000     1.1019  27.894597    32.2879    25.8589 0.0000e+00
    404.099     40.000     1.0876  27.883460    32.2880    25.8597 0.0000e+00
    406.006     41.000     1.0793  27.877402    32.2883    25.8605 0.0000e+00
    408.234     42.000     1.0775  27.876555    32.2885    25.8608 0.0000e+00
    410.677     43.000     1.0775  27.876822    32.2883    25.8606 0.0000e+00
    412.490     44.000     1.0772  27.877047    32.2883    25.8607 0.0000e+00
    414.261     45.000     1.0779  27.878102    32.2884    25.8607 0.0000e+00
    416.780     46.000     1.0790  27.879608    32.2886    25.8608 0.0000e+00
    419.335     47.000     1.0795  27.880358    32.2885    25.8606 0.0000e+00
    421.130     48.000     1.0806  27.881764    32.2886    25.8607 0.0000e+00
    423.216     49.000     1.0863  27.887689    32.2897    25.8612 0.0000e+00
    425.802     50.000     1.0894  27.890850    32.2899    25.8612 0.0000e+00
    428.084     51.000     1.0904  27.892253    32.2901    25.8613 0.0000e+00
    429.959     52.000     1.0919  27.894031    32.2903    25.8613 0.0000e+00
    432.447     53.000     1.0958  27.898269    32.2911    25.8618 0.0000e+00
    434.642     54.000     1.0975  27.900213    32.2913    25.8618 0.0000e+00
    436.697     55.000     1.0989  27.901947    32.2915    25.8619 0.0000e+00
    439.066     56.000     1.0987  27.901937    32.2911    25.8616 0.0000e+00
    440.784     57.000     1.0994  27.903283    32.2915    25.8619 0.0000e+00
    442.830     58.000     1.1010  27.905451    32.2921    25.8622 0.0000e+00
    445.282     59.000     1.1012  27.905941    32.2919    25.8621 0.0000e+00
    446.887     60.000     1.1011  27.906218    32.2918    25.8620 0.0000e+00
    448.797     61.000     1.1011  27.906638    32.2918    25.8620 0.0000e+00
    456.697     62.000     1.1013  27.907129    32.2917    25.8619 0.0000e+00
    462.072     61.000     1.1004  27.905947    32.2916    25.8619 0.0000e+00
    464.531     60.000     1.0991  27.904202    32.2913    25.8617 0.0000e+00
    467.512     59.000     1.0975  27.902311    32.2911    25.8617 0.0000e+00
    469.971     58.000     1.0953  27.899725    32.2907    25.8614 0.0000e+00
    473.539     57.000     1.0941  27.898221    32.2906    25.8614 0.0000e+00
    476.569     56.000     1.0937  27.897450    32.2905    25.8614 0.0000e+00
    479.749     55.000     1.0942  27.897545    32.2907    25.8615 0.0000e+00
    483.148     54.000     1.0915  27.894532    32.2902    25.8613 0.0000e+00
    487.039     53.000     1.0885  27.891188    32.2896    25.8610 0.0000e+00
    490.493     52.000     1.0865  27.888941    32.2894    25.8609 0.0000e+00
    495.380     51.000     1.0848  27.886935    32.2892    25.8609 0.0000e+00
    498.805     50.000     1.0855  27.887032    32.2891    25.8608 0.0000e+00
    503.325     49.000     1.0813  27.882660    32.2884    25.8605 0.0000e+00
    506.161     48.000     1.0811  27.881928    32.2883    25.8604 0.0000e+00
    509.604     47.000     1.0805  27.880881    32.2881    25.8603 0.0000e+00
    513.379     46.000     1.0809  27.880823    32.2882    25.8603 0.0000e+00
    516.370     45.000     1.0803  27.879666    32.2879    25.8601 0.0000e+00
    520.141     44.000     1.0800  27.878845    32.2877    25.8600 0.0000e+00
    524.077     43.000     1.0807  27.878713    32.2874    25.8597 0.0000e+00
    528.268     42.000     1.0831  27.880006    32.2871    25.8593 0.0000e+00
    532.590     41.000     1.0925  27.886966    32.2868    25.8585 0.0000e+00
    536.437     40.000     1.0988  27.891613    32.2868    25.8581 0.0000e+00
    541.611     39.000     1.1068  27.897590    32.2867    25.8575 0.0000e+00
    544.801     38.000     1.1103  27.899675    32.2863    25.8570 0.0000e+00
    549.727     37.000     1.1122  27.899062    32.2841    25.8551 0.0000e+00
    553.405     36.000     1.1040  27.889791    32.2813    25.8534 0.0000e+00
    558.229     35.000     1.1156  27.892031    32.2727    25.8458 0.0000e+00
    563.379     34.000     1.1209  27.893024    32.2691    25.8425 0.0000e+00
    568.805     33.000     1.1228  27.893336    32.2680    25.8416 0.0000e+00
    573.993     32.000     1.1253  27.894210    32.2671    25.8407 0.0000e+00
    578.172     31.000     1.1540  27.916287    32.2661    25.8382 0.0000e+00
    582.774     30.000     1.1991  27.951699    32.2651    25.8346 0.0000e+00
    586.894     29.000     1.2671  28.007379    32.2662    25.8313 0.0000e+00
    591.328     28.000     1.2993  28.034020    32.2674    25.8302 0.0000e+00
    596.748     27.000     1.3873  28.106703    32.2693    25.8261 0.0000e+00
    601.034     26.000     1.5367  28.227094    32.2682    25.8155 0.0000e+00
    605.679     25.000     1.6990  28.363494    32.2737    25.8090 0.0000e+00
    609.697     24.000     1.7987  28.448443    32.2786    25.8060 0.0000e+00
    613.587     23.000     1.8357  28.479973    32.2807    25.8052 0.0000e+00
    617.031     22.000     1.8584  28.499152    32.2820    25.8046 0.0000e+00
    620.757     21.000     1.8844  28.521083    32.2834    25.8039 0.0000e+00
    624.085     20.000     1.8924  28.526905    32.2830    25.8030 0.0000e+00
    627.462     19.000     1.9095  28.540092    32.2825    25.8014 0.0000e+00
    631.036     18.000     1.9193  28.546964    32.2816    25.8000 0.0000e+00
    634.318     17.000     1.9741  28.590928    32.2810    25.7956 0.0000e+00
    638.290     16.000     2.0252  28.631750    32.2803    25.7913 0.0000e+00
    641.801     15.000     2.0786  28.675146    32.2803    25.7875 0.0000e+00
    645.693     14.000     2.1028  28.694608    32.2804    25.7857 0.0000e+00
    649.417     13.000     2.1279  28.714910    32.2806    25.7840 0.0000e+00
    652.910     12.000     2.1416  28.726002    32.2809    25.7833 0.0000e+00
    656.973     11.000     2.1836  28.760361    32.2813    25.7805 0.0000e+00
    660.221     10.000     2.1722  28.750207    32.2809    25.7810 0.0000e+00
    664.650      9.000     2.1910  28.766014    32.2819    25.7804 0.0000e+00
    668.155      8.000     2.2022  28.774277    32.2813    25.7791 0.0000e+00
    672.495      7.000     2.2082  28.779051    32.2816    25.7789 0.0000e+00
    676.200      6.000     2.2088  28.779213    32.2817    25.7789 0.0000e+00
    680.574      5.000     2.2044  28.775409    32.2821    25.7795 0.0000e+00
    684.883      4.000     2.2044  28.774934    32.2820    25.7795 0.0000e+00
    689.512      3.000     2.2130  28.781521    32.2820    25.7788 0.0000e+00
    694.737      2.000     2.2112  28.779695    32.2821    25.7790 0.0000e+00
    714.056      1.000     2.2103  28.734170    32.2272    25.7352 0.0000e+00
