* Sea-Bird SBE 19plus Data File:
* FileName = C:\Sea-Bird Data\2014\DY1405\Casts\BON014.hex
* Software Version Seasave V 7.22.3
* Temperature SN = 4530
* Conductivity SN = 4530
* System UpLoad Time = May 09 2014 11:15:31
* Real-Time Sample Interval = 0.2500 seconds
* System UTC = May 09 2014 11:15:31
# nquan = 7                                 
# nvalues = 127                         
# units = specified
# name 0 = timeS: Time, Elapsed [seconds]
# name 1 = prdM: Pressure, Strain Gauge [db]
# name 2 = tv290C: Temperature [ITS-90, deg C]
# name 3 = c0mS/cm: Conductivity [mS/cm]
# name 4 = sal00: Salinity, Practical [PSU]
# name 5 = sigma-t00: Density [sigma-t, Kg/m^3 ]
# name 6 = flag: flag
# span 0 =    152.208,    575.344       
# span 1 =      1.000,     64.000       
# span 2 =     2.7882,     4.1711       
# span 3 =  21.921867,  30.571930       
# span 4 =    22.5330,    32.5241       
# span 5 =    17.8727,    25.8048       
# span 6 = 0.0000e+00, 0.0000e+00       
# interval = decibars: 1                
# start_time = May 09 2014 11:15:31 [System UTC, header]
# bad_flag = -9.990e-29
# <Sensors count="3" >
#   <sensor Channel="1" >
#     <!-- Count, Temperature -->
#     <TemperatureSensor SensorID="58" >
#       <SerialNumber>4530</SerialNumber>
#       <CalibrationDate>03-Dec-13</CalibrationDate>
#       <A0>1.22471000e-003</A0>
#       <A1>2.66234600e-004</A1>
#       <A2>-3.25282000e-007</A2>
#       <A3>1.63905300e-007</A3>
#       <Slope>1.00000000</Slope>
#       <Offset>0.0000</Offset>
#     </TemperatureSensor>
#   </sensor>
#   <sensor Channel="2" >
#     <!-- Frequency 0, Conductivity -->
#     <ConductivitySensor SensorID="3" >
#       <SerialNumber>4530</SerialNumber>
#       <CalibrationDate>03-Dec-13</CalibrationDate>
#       <UseG_J>1</UseG_J>
#       <!-- Cell const and series R are applicable only for wide range sensors. -->
#       <SeriesR>0.0000</SeriesR>
#       <CellConst>2000.0000</CellConst>
#       <ConductivityType>0</ConductivityType>
#       <Coefficients equation="0" >
#         <A>0.00000000e+000</A>
#         <B>0.00000000e+000</B>
#         <C>0.00000000e+000</C>
#         <D>0.00000000e+000</D>
#         <M>0.0</M>
#         <CPcor>-9.57000000e-008</CPcor>
#       </Coefficients>
#       <Coefficients equation="1" >
#         <G>-9.84131900e-001</G>
#         <H>1.41458700e-001</H>
#         <I>-1.92288200e-004</I>
#         <J>3.59848200e-005</J>
#         <CPcor>-9.57000000e-008</CPcor>
#         <CTcor>3.2500e-006</CTcor>
#         <!-- WBOTC not applicable unless ConductivityType = 1. -->
#         <WBOTC>0.00000000e+000</WBOTC>
#       </Coefficients>
#       <Slope>1.00000000</Slope>
#       <Offset>0.00000</Offset>
#     </ConductivitySensor>
#   </sensor>
#   <sensor Channel="3" >
#     <!-- Count, Pressure, Strain Gauge -->
#     <PressureSensor SensorID="46" >
#       <SerialNumber>4530</SerialNumber>
#       <CalibrationDate>02-Dec-13</CalibrationDate>
#       <PA0>-3.35712300e-001</PA0>
#       <PA1>1.56795400e-002</PA1>
#       <PA2>-6.60390500e-010</PA2>
#       <PTEMPA0>-6.74611800e+001</PTEMPA0>
#       <PTEMPA1>5.06446900e+001</PTEMPA1>
#       <PTEMPA2>-4.65162800e-001</PTEMPA2>
#       <PTCA0>5.24503600e+005</PTCA0>
#       <PTCA1>-3.17070100e-002</PTCA1>
#       <PTCA2>-4.70494400e-002</PTCA2>
#       <PTCB0>2.49031200e+001</PTCB0>
#       <PTCB1>-5.75000000e-004</PTCB1>
#       <PTCB2>0.00000000e+000</PTCB2>
#       <Offset>0.000000</Offset>
#     </PressureSensor>
#   </sensor>
# </Sensors>
# datcnv_date = May 12 2014 18:47:37, 7.22.2 [datcnv_vars = 4]
# datcnv_in = c:\data\seacat\current\bon014.hex c:\data\seacat\current\bon014.XMLCON
# datcnv_skipover = 0
# filter_date = May 12 2014 18:47:37, 7.22.2
# filter_in = c:\data\seacat\current\bon014.cnv
# filter_low_pass_tc_A = 0.500
# filter_low_pass_tc_B = 2.000
# filter_low_pass_A_vars = prdM tv290C c0mS/cm
# filter_low_pass_B_vars =
# alignctd_date = May 12 2014 18:47:37, 7.22.2
# alignctd_in = c:\data\seacat\current\bon014.cnv
# alignctd_adv = tv290C 0.500                                                                                                                                                                                                        
# wildedit_date = May 12 2014 18:47:38, 7.22.2
# wildedit_in = c:\data\seacat\current\bon014.cnv
# wildedit_pass1_nstd = 2.0
# wildedit_pass2_nstd = 15.0
# wildedit_pass2_mindelta = 1.000e-002
# wildedit_npoint = 100
# wildedit_vars = prdM tv290C c0mS/cm
# wildedit_excl_bad_scans = yes
# binavg_date = May 12 2014 18:47:38, 7.22.2
# binavg_in = c:\data\seacat\current\bon014.cnv
# binavg_bintype = decibars
# binavg_binsize = 1
# binavg_excl_bad_scans = yes
# binavg_skipover = 0
# binavg_surface_bin = no, min = 0.000, max = 0.500, value = 0.000
# Derive_date = May 12 2014 18:47:38, 7.22.2 [derive_vars = 2]
# Derive_in = c:\data\seacat\current\bon014.cnv c:\data\seacat\current\BON014.XMLcon
# file_type = ascii
*END*
    152.208      1.000     4.1711  21.921867    22.5330    17.8727 0.0000e+00
    154.670      2.000     4.1238  30.571930    32.5241    25.8048 0.0000e+00
    158.974      3.000     4.1315  30.109462    31.9726    25.3658 0.0000e+00
    164.174      4.000     4.1480  30.143914    31.9965    25.3831 0.0000e+00
    166.248      5.000     4.1438  30.136127    31.9909    25.3791 0.0000e+00
    168.085      6.000     4.1401  30.142982    32.0021    25.3883 0.0000e+00
    169.745      7.000     4.1412  30.149766    32.0084    25.3933 0.0000e+00
    171.840      8.000     4.1419  30.147406    32.0045    25.3901 0.0000e+00
    173.707      9.000     4.1421  30.155199    32.0129    25.3967 0.0000e+00
    175.689     10.000     4.1461  30.159929    32.0141    25.3972 0.0000e+00
    178.285     11.000     4.1336  30.150021    32.0141    25.3985 0.0000e+00
    180.063     12.000     4.1318  30.158502    32.0253    25.4076 0.0000e+00
    182.531     13.000     4.1343  30.155921    32.0193    25.4026 0.0000e+00
    184.666     14.000     4.1196  30.158184    32.0358    25.4172 0.0000e+00
    186.474     15.000     4.1226  30.164466    32.0398    25.4200 0.0000e+00
    188.737     16.000     4.0744  30.148556    32.0677    25.4469 0.0000e+00
    190.486     17.000     3.9225  30.030009    32.0763    25.4685 0.0000e+00
    192.116     18.000     3.6937  29.766922    31.9889    25.4206 0.0000e+00
    194.413     19.000     3.6292  29.711037    31.9854    25.4237 0.0000e+00
    196.343     20.000     3.5963  29.686842    31.9884    25.4292 0.0000e+00
    197.931     21.000     3.5762  29.673096    31.9913    25.4333 0.0000e+00
    199.913     22.000     3.5471  29.652951    31.9954    25.4393 0.0000e+00
    202.099     23.000     3.5182  29.633667    32.0004    25.4458 0.0000e+00
    203.979     24.000     3.4881  29.618388    32.0113    25.4573 0.0000e+00
    205.891     25.000     3.4542  29.603921    32.0270    25.4728 0.0000e+00
    208.340     26.000     3.3813  29.563192    32.0497    25.4975 0.0000e+00
    210.344     27.000     3.2423  29.444484    32.0444    25.5055 0.0000e+00
    212.447     28.000     3.2308  29.440388    32.0504    25.5113 0.0000e+00
    214.743     29.000     3.2419  29.451065    32.0517    25.5113 0.0000e+00
    217.101     30.000     3.2461  29.454615    32.0513    25.5106 0.0000e+00
    219.211     31.000     3.2563  29.464611    32.0527    25.5108 0.0000e+00
    221.459     32.000     3.2590  29.468651    32.0543    25.5119 0.0000e+00
    223.754     33.000     3.2560  29.467128    32.0549    25.5127 0.0000e+00
    226.133     34.000     3.2535  29.466249    32.0558    25.5136 0.0000e+00
    228.184     35.000     3.2407  29.457353    32.0573    25.5159 0.0000e+00
    230.641     36.000     3.2212  29.442259    32.0580    25.5181 0.0000e+00
    233.094     37.000     3.2112  29.434772    32.0584    25.5193 0.0000e+00
    234.874     38.000     3.2060  29.431633    32.0592    25.5205 0.0000e+00
    237.408     39.000     3.1989  29.427013    32.0602    25.5219 0.0000e+00
    239.798     40.000     3.1775  29.410808    32.0614    25.5247 0.0000e+00
    241.440     41.000     3.1432  29.381212    32.0593    25.5260 0.0000e+00
    243.847     42.000     3.1261  29.367546    32.0593    25.5274 0.0000e+00
    246.303     43.000     3.1138  29.358278    32.0598    25.5289 0.0000e+00
    248.241     44.000     3.1007  29.349759    32.0620    25.5318 0.0000e+00
    250.181     45.000     3.0794  29.334431    32.0642    25.5353 0.0000e+00
    252.619     46.000     3.0258  29.292805    32.0667    25.5419 0.0000e+00
    254.625     47.000     2.9376  29.222147    32.0685    25.5508 0.0000e+00
    256.592     48.000     2.8702  29.167393    32.0688    25.5566 0.0000e+00
    259.143     49.000     2.8424  29.144843    32.0687    25.5588 0.0000e+00
    261.146     50.000     2.8355  29.138990    32.0679    25.5588 0.0000e+00
    263.280     51.000     2.8357  29.139311    32.0676    25.5585 0.0000e+00
    265.895     52.000     2.8327  29.137088    32.0673    25.5585 0.0000e+00
    268.066     53.000     2.8141  29.122115    32.0672    25.5599 0.0000e+00
    270.317     54.000     2.8055  29.115240    32.0669    25.5604 0.0000e+00
    272.721     55.000     2.8012  29.112036    32.0668    25.5607 0.0000e+00
    274.917     56.000     2.7972  29.108903    32.0664    25.5607 0.0000e+00
    277.251     57.000     2.7966  29.108751    32.0663    25.5607 0.0000e+00
    279.541     58.000     2.7972  29.109537    32.0661    25.5605 0.0000e+00
    281.588     59.000     2.7969  29.109706    32.0661    25.5605 0.0000e+00
    283.498     60.000     2.7968  29.109928    32.0659    25.5604 0.0000e+00
    285.368     61.000     2.7957  29.109571    32.0661    25.5606 0.0000e+00
    287.492     62.000     2.7927  29.107501    32.0660    25.5608 0.0000e+00
    289.679     63.000     2.7887  29.104510    32.0659    25.5610 0.0000e+00
    293.897     64.000     2.7882  29.104349    32.0656    25.5608 0.0000e+00
    297.230     63.000     2.7900  29.105374    32.0656    25.5607 0.0000e+00
    302.357     62.000     2.7897  29.104692    32.0656    25.5607 0.0000e+00
    304.277     61.000     2.7894  29.103945    32.0655    25.5607 0.0000e+00
    307.974     60.000     2.7907  29.104450    32.0654    25.5604 0.0000e+00
    310.513     59.000     2.7945  29.107257    32.0655    25.5602 0.0000e+00
    314.973     58.000     2.7946  29.106803    32.0654    25.5601 0.0000e+00
    318.565     57.000     2.7932  29.105134    32.0653    25.5602 0.0000e+00
    323.099     56.000     2.7940  29.105368    32.0653    25.5601 0.0000e+00
    327.244     55.000     2.7969  29.107360    32.0654    25.5599 0.0000e+00
    331.239     54.000     2.8019  29.111051    32.0654    25.5595 0.0000e+00
    334.629     53.000     2.8098  29.117124    32.0654    25.5589 0.0000e+00
    338.958     52.000     2.8182  29.123641    32.0655    25.5582 0.0000e+00
    342.573     51.000     2.8279  29.130905    32.0651    25.5572 0.0000e+00
    347.369     50.000     2.8501  29.148641    32.0651    25.5553 0.0000e+00
    352.710     49.000     2.8667  29.161101    32.0641    25.5532 0.0000e+00
    357.328     48.000     2.8760  29.168885    32.0648    25.5530 0.0000e+00
    362.154     47.000     2.8875  29.177963    32.0649    25.5521 0.0000e+00
    366.942     46.000     2.9201  29.203711    32.0641    25.5488 0.0000e+00
    372.015     45.000     3.0041  29.270072    32.0613    25.5395 0.0000e+00
    376.326     44.000     3.0616  29.315025    32.0590    25.5327 0.0000e+00
    381.189     43.000     3.0763  29.324625    32.0565    25.5295 0.0000e+00
    385.380     42.000     3.0858  29.331343    32.0557    25.5280 0.0000e+00
    389.710     41.000     3.0938  29.336939    32.0550    25.5268 0.0000e+00
    394.238     40.000     3.0973  29.338748    32.0542    25.5259 0.0000e+00
    397.858     39.000     3.1037  29.342974    32.0535    25.5247 0.0000e+00
    401.633     38.000     3.1086  29.346249    32.0531    25.5240 0.0000e+00
    404.671     37.000     3.1171  29.352619    32.0529    25.5231 0.0000e+00
    408.206     36.000     3.1361  29.367417    32.0523    25.5210 0.0000e+00
    411.001     35.000     3.1584  29.384905    32.0518    25.5187 0.0000e+00
    414.135     34.000     3.1715  29.394704    32.0511    25.5170 0.0000e+00
    416.961     33.000     3.1795  29.400489    32.0507    25.5159 0.0000e+00
    420.164     32.000     3.1941  29.411215    32.0496    25.5138 0.0000e+00
    423.838     31.000     3.2067  29.420370    32.0487    25.5120 0.0000e+00
    427.675     30.000     3.2161  29.426787    32.0476    25.5103 0.0000e+00
    431.279     29.000     3.2199  29.428960    32.0469    25.5095 0.0000e+00
    435.395     28.000     3.2311  29.435597    32.0443    25.5064 0.0000e+00
    438.360     27.000     3.2538  29.452236    32.0424    25.5028 0.0000e+00
    442.704     26.000     3.2718  29.466645    32.0424    25.5013 0.0000e+00
    446.000     25.000     3.2724  29.463426    32.0384    25.4981 0.0000e+00
    450.077     24.000     3.4026  29.570572    32.0386    25.4866 0.0000e+00
    454.477     23.000     3.4729  29.610731    32.0177    25.4637 0.0000e+00
    458.576     22.000     3.4925  29.611216    31.9994    25.4474 0.0000e+00
    462.985     21.000     3.5096  29.615744    31.9885    25.4372 0.0000e+00
    467.330     20.000     3.5461  29.641376    31.9837    25.4300 0.0000e+00
    471.507     19.000     3.5998  29.680924    31.9784    25.4209 0.0000e+00
    476.789     18.000     3.6414  29.710493    31.9732    25.4130 0.0000e+00
    481.664     17.000     3.6581  29.719419    31.9680    25.4072 0.0000e+00
    486.895     16.000     3.6936  29.748978    31.9687    25.4045 0.0000e+00
    491.648     15.000     3.7506  29.790637    31.9628    25.3945 0.0000e+00
    497.021     14.000     3.7938  29.823241    31.9596    25.3879 0.0000e+00
    502.847     13.000     3.8436  29.860749    31.9557    25.3801 0.0000e+00
    508.154     12.000     4.0401  30.014602    31.9457    25.3533 0.0000e+00
    514.001     11.000     4.0927  30.056944    31.9447    25.3474 0.0000e+00
    520.452     10.000     4.0954  30.059272    31.9453    25.3476 0.0000e+00
    526.431      9.000     4.1007  30.063854    31.9461    25.3477 0.0000e+00
    531.421      8.000     4.1040  30.066349    31.9463    25.3475 0.0000e+00
    536.267      7.000     4.1052  30.066908    31.9463    25.3474 0.0000e+00
    540.399      6.000     4.1061  30.067201    31.9462    25.3473 0.0000e+00
    544.817      5.000     4.1046  30.065653    31.9464    25.3476 0.0000e+00
    548.883      4.000     4.1044  30.065119    31.9465    25.3477 0.0000e+00
    562.716      3.000     4.1038  30.064216    31.9465    25.3477 0.0000e+00
    572.405      2.000     4.1022  30.062079    31.9461    25.3475 0.0000e+00
    575.344      1.000     4.1020  29.832037    31.6768    25.1336 0.0000e+00
